Time (s);FP1;AF3;F7;F3;FC1;FC5;T7;C3;CP1;CP5;P7;P3;Pz;PO3;O1;Oz;O2;PO4;P4;P8;CP6;CP2;C4;T8;FC6;FC2;F4;F8;AF4;FP2;Fz;Cz;Sampling Rate
0.0000000000e+000;3.5437229944e+000;3.4704110969e+000;3.4388113211e+000;3.4322274051e+000;3.2800536767e+000;3.4239026162e+000;3.3058067000e+000;3.2219177801e+000;3.1893983988e+000;3.2138918595e+000;3.1144840186e+000;3.1146703170e+000;3.1395136155e+000;3.1173091263e+000;3.4060641634e+000;3.0939517607e+000;3.1240089435e+000;3.1700975663e+000;3.2519971091e+000;3.3601334051e+000;3.3937105157e+000;3.2271943956e+000;3.3572223888e+000;3.4935823205e+000;3.5558769012e+000;3.3002352908e+000;3.4747265224e+000;3.6949207233e+000;3.6059108912e+000;3.3976385667e+000;3.3593924545e+000;3.2606725279e+000;1
9.9609375000e-002;3.5969255391e+000;3.6485879094e+000;3.5607503548e+000;3.5561064778e+000;3.3778408405e+000;3.5647913193e+000;3.3305531051e+000;3.3408135982e+000;3.2278753816e+000;3.3253507393e+000;3.1755001333e+000;3.1464702308e+000;3.0773134388e+000;3.0888028856e+000;3.3738318157e+000;3.0624071043e+000;3.1103865842e+000;3.1165371349e+000;3.2252853721e+000;3.3724980731e+000;3.4255927749e+000;3.2131950222e+000;3.3986000555e+000;3.5249859292e+000;3.6481788852e+000;3.3580898729e+000;3.5607479032e+000;3.7725197605e+000;3.7046451382e+000;3.4767519842e+000;3.4719445888e+000;3.2916861460e+000;
1.9921875000e-001;3.5178149764e+000;3.6707466934e+000;3.5438797305e+000;3.5932232956e+000;3.4137130350e+000;3.5430615342e+000;3.5025190326e+000;3.3570047341e+000;3.2770458523e+000;3.3565576136e+000;3.2641256330e+000;3.2074469022e+000;3.1298919818e+000;3.1448850454e+000;3.3874035599e+000;3.1518419407e+000;3.3433933250e+000;3.2166581285e+000;3.2845399040e+000;3.4605162997e+000;3.4583777585e+000;3.2589303934e+000;3.4064301469e+000;3.5479557004e+000;3.5983852765e+000;3.3805112131e+000;3.5677523389e+000;3.7139828922e+000;3.7122468697e+000;3.4298091826e+000;3.4935620381e+000;3.3280991648e+000;
2.9882812500e-001;3.5234739296e+000;3.6094198746e+000;3.5023398501e+000;3.5561390809e+000;3.4115186513e+000;3.4869797927e+000;3.3658699877e+000;3.3540093356e+000;3.2888207943e+000;3.3198163056e+000;3.2087860967e+000;3.2189387696e+000;3.2122934750e+000;3.1843756810e+000;3.4425000387e+000;3.1816853357e+000;3.2493652695e+000;3.2093589091e+000;3.2788724871e+000;3.3924479011e+000;3.4085993324e+000;3.2905358171e+000;3.4114023065e+000;3.4714860738e+000;3.6013052400e+000;3.4071106499e+000;3.5562640232e+000;3.7016624569e+000;3.6910151083e+000;3.3639060603e+000;3.4691054169e+000;3.3434146437e+000;
3.9843750000e-001;3.6555444597e+000;3.5751789333e+000;3.5873426343e+000;3.5574667893e+000;3.4174667637e+000;3.5186717441e+000;3.5661421652e+000;3.3360910642e+000;3.3008139969e+000;3.3361291597e+000;3.2435707615e+000;3.2364449942e+000;3.2547161851e+000;3.2336651626e+000;3.4715555720e+000;3.1933511778e+000;3.1963575281e+000;3.2598077558e+000;3.3366052681e+000;3.4251118005e+000;3.4585307833e+000;3.3430453927e+000;3.4723602518e+000;3.5162425801e+000;3.6607537732e+000;3.4491040729e+000;3.5938608096e+000;3.7432243572e+000;3.6978865431e+000;3.5031834621e+000;3.4653444297e+000;3.3761440506e+000;
4.9804687500e-001;3.6917654734e+000;3.6109377743e+000;3.5847537238e+000;3.5489286203e+000;3.3703604221e+000;3.5086477907e+000;3.4301100017e+000;3.3240598546e+000;3.2124362133e+000;3.2809881616e+000;3.2128140061e+000;3.1678774708e+000;3.0376137367e+000;3.1518606795e+000;3.4552388562e+000;3.1236549707e+000;3.1278102570e+000;3.0714870257e+000;3.1994774641e+000;3.3557061891e+000;3.4127542185e+000;3.2159012135e+000;3.4096992115e+000;3.5049601450e+000;3.6260349850e+000;3.3867796983e+000;3.5717274499e+000;3.7539984901e+000;3.7361813156e+000;3.5560468289e+000;3.4639529835e+000;3.3078417662e+000;
5.9765625000e-001;4.4166413401e+000;4.0536784806e+000;4.1850243363e+000;4.0888494380e+000;4.0284131009e+000;4.1808096461e+000;3.7861032200e+000;4.0202634759e+000;3.9865711653e+000;3.9047474752e+000;3.8485377648e+000;3.9371890700e+000;4.0706932258e+000;3.9675587179e+000;4.0851295198e+000;3.9270444457e+000;3.8899997698e+000;4.0104205444e+000;4.0805652233e+000;4.0303017993e+000;4.0773854620e+000;4.0614145466e+000;4.1027629636e+000;4.1494322548e+000;4.2202264813e+000;4.0482743868e+000;4.1373888045e+000;4.3109453443e+000;4.1913509681e+000;4.1905777760e+000;3.9744795891e+000;4.0393242879e+000;
6.9726562500e-001;3.5853017537e+000;3.4706258349e+000;3.4550666649e+000;3.4129009211e+000;3.2399895517e+000;3.3661690558e+000;3.3476421677e+000;3.1823826108e+000;3.0507568099e+000;3.1564438649e+000;3.0535651349e+000;2.9848328867e+000;2.9182204232e+000;2.9156990001e+000;3.3227617095e+000;2.9226387185e+000;3.0134109547e+000;2.9452266928e+000;3.0958644047e+000;3.2586205555e+000;3.3299300311e+000;3.0910027652e+000;3.3026735281e+000;3.4980708595e+000;3.5511001767e+000;3.2559645213e+000;3.4923449779e+000;3.7057350839e+000;3.6441741557e+000;3.4658363861e+000;3.3354475977e+000;3.1673397164e+000;
7.9687500000e-001;3.5473823813e+000;3.4808948964e+000;3.4720512078e+000;3.4107597928e+000;3.2449329484e+000;3.3861161407e+000;3.2976013468e+000;3.2089669238e+000;3.0372814108e+000;3.1943409327e+000;3.0899496822e+000;3.0072675261e+000;2.8677227932e+000;2.9016215334e+000;3.3374950110e+000;2.9838740276e+000;3.0614767513e+000;2.9273621007e+000;3.0709781342e+000;3.2433138358e+000;3.2838745275e+000;3.0528145504e+000;3.2637068390e+000;3.4200795473e+000;3.5015386958e+000;3.2393569241e+000;3.4524893166e+000;3.6727698255e+000;3.6080152064e+000;3.4462445219e+000;3.3292871442e+000;3.1569387012e+000;
8.9648437500e-001;3.5645969451e+000;3.4824249210e+000;3.5186648981e+000;3.4120187783e+000;3.2284238969e+000;3.4072914899e+000;3.4104966563e+000;3.2010215660e+000;2.9868831763e+000;3.2370234330e+000;3.2390075668e+000;3.0401417312e+000;2.8068301387e+000;2.9685162288e+000;3.4983040728e+000;3.1501103966e+000;3.2200968196e+000;2.9459700804e+000;3.0615631273e+000;3.2943358100e+000;3.2699458005e+000;3.0011594982e+000;3.2163860022e+000;3.3769503089e+000;3.4594808812e+000;3.2124653076e+000;3.4039487617e+000;3.6326110748e+000;3.5898770824e+000;3.4628908808e+000;3.3234579662e+000;3.1052372518e+000;
9.9609375000e-001;3.6884399107e+000;3.5986530638e+000;3.6584652157e+000;3.5295754041e+000;3.3544850533e+000;3.5360107489e+000;3.6191893763e+000;3.3508187622e+000;3.1496784036e+000;3.3822694608e+000;3.3879351633e+000;3.2452550933e+000;3.0040814362e+000;3.1402369672e+000;3.5426423910e+000;3.1055437430e+000;3.0919554905e+000;2.9907769395e+000;3.1662313191e+000;3.3382330687e+000;3.3698189447e+000;3.1400798623e+000;3.3161921632e+000;3.4557237777e+000;3.5324206340e+000;3.3313606729e+000;3.4693000747e+000;3.6922163304e+000;3.6696729452e+000;3.5320027554e+000;3.4199999326e+000;3.2382903182e+000;
1.0957031250e+000;3.8495536795e+000;3.8246190835e+000;3.8292686140e+000;3.7300066935e+000;3.5910358189e+000;3.7380567484e+000;3.7723137074e+000;3.5524150820e+000;3.4168687743e+000;3.4856628994e+000;3.4675671923e+000;3.4196114739e+000;3.2883887801e+000;3.3548339872e+000;3.6467311709e+000;3.3287205611e+000;3.2371690672e+000;3.1383249234e+000;3.3241807652e+000;3.4274438613e+000;3.4948374567e+000;3.3967553863e+000;3.5376602162e+000;3.5208631313e+000;3.7246404651e+000;3.5782628602e+000;3.6897501154e+000;3.8590013669e+000;3.8822823967e+000;3.6658600047e+000;3.6552176812e+000;3.5144013972e+000;
1.1953125000e+000;3.7415015314e+000;3.7829788707e+000;3.7559102643e+000;3.6606519862e+000;3.5213619419e+000;3.6293847473e+000;3.6476066162e+000;3.4865863496e+000;3.3808195412e+000;3.4361428359e+000;3.3413537181e+000;3.3630765070e+000;3.4381226297e+000;3.3357151489e+000;3.5441214356e+000;3.3723169307e+000;3.3664064562e+000;3.3899022470e+000;3.4943847951e+000;3.5414058710e+000;3.5872583144e+000;3.4721119836e+000;3.5715329504e+000;3.6506112065e+000;3.7423439051e+000;3.5531420067e+000;3.7162694803e+000;3.8851185073e+000;3.8916928073e+000;3.7089595572e+000;3.6127311988e+000;3.4879851855e+000;
1.2949218750e+000;3.3400001650e+000;3.3436436907e+000;3.3279239014e+000;3.2411681986e+000;3.0805269463e+000;3.1914545491e+000;3.2127409203e+000;3.0233315617e+000;2.8567628037e+000;2.9523911707e+000;2.8724935240e+000;2.7248756416e+000;2.7580957066e+000;2.5720792626e+000;2.7961548906e+000;2.6964580792e+000;2.9255104841e+000;2.7642511113e+000;2.8679954063e+000;3.0818956024e+000;3.0404338871e+000;2.8726927509e+000;3.0467679348e+000;3.2067135966e+000;3.2920474610e+000;3.0357490410e+000;3.2493513063e+000;3.5077665458e+000;3.4388026521e+000;3.3279891510e+000;3.1406452441e+000;2.9706183987e+000;
1.3945312500e+000;3.2794359739e+000;3.3290601061e+000;3.2681932328e+000;3.1954250522e+000;3.0524195345e+000;3.1506051437e+000;3.1511298304e+000;2.9820253712e+000;2.8386862129e+000;2.8886694739e+000;2.8262589601e+000;2.6669811206e+000;2.7995837381e+000;2.5353081845e+000;2.7845014581e+000;2.7091762185e+000;2.9289079811e+000;2.8115927370e+000;2.8872297833e+000;3.0731716260e+000;3.0418102565e+000;2.8682656021e+000;3.0304450888e+000;3.2185251129e+000;3.2801311054e+000;3.0165288926e+000;3.2377229127e+000;3.5067712809e+000;3.4235657861e+000;3.2867356455e+000;3.1158548741e+000;2.9505194139e+000;
1.4941406250e+000;3.3115223688e+000;3.4122117742e+000;3.3753099616e+000;3.3659294400e+000;3.2766828177e+000;3.3197401023e+000;3.3185284240e+000;3.2233066597e+000;3.1228570495e+000;3.1561655046e+000;3.0747894470e+000;3.0227974907e+000;3.1724892002e+000;2.9471165870e+000;3.0792216314e+000;3.0765837289e+000;3.2477923444e+000;3.1497653680e+000;3.1585376364e+000;3.2065785881e+000;3.1946554026e+000;3.1608026085e+000;3.1707657902e+000;3.2856349504e+000;3.3348384709e+000;3.1869640900e+000;3.2866841296e+000;3.5573515440e+000;3.4178147634e+000;3.4153301065e+000;3.2151350597e+000;3.1919994980e+000;
1.5937500000e+000;3.2962343518e+000;3.2117721727e+000;3.2081454122e+000;3.1267815792e+000;3.0295766207e+000;3.0931810569e+000;3.1044939067e+000;2.9239126092e+000;2.7822942984e+000;2.7963625583e+000;2.6839902715e+000;2.5975124698e+000;2.7890897142e+000;2.4754716385e+000;2.6268040369e+000;2.5976202063e+000;2.8039483458e+000;2.7286436180e+000;2.8151698554e+000;2.9142716066e+000;2.9566666480e+000;2.8555216190e+000;2.9980073425e+000;3.1453052993e+000;3.2172423957e+000;3.0051170460e+000;3.1731284868e+000;3.4451591442e+000;3.3198037960e+000;3.2593702126e+000;3.0411905357e+000;2.9373709868e+000;
1.6933593750e+000;3.1302249887e+000;3.3033680278e+000;3.2443895347e+000;3.1539922371e+000;3.0259729853e+000;3.1052307235e+000;3.0994651006e+000;2.9312357089e+000;2.8150286121e+000;2.8006257053e+000;2.7184481372e+000;2.5717993149e+000;2.8851579422e+000;2.4621528079e+000;2.5868272637e+000;2.6084892296e+000;2.8783455753e+000;2.7906747218e+000;2.8751388594e+000;2.9442157976e+000;2.9351909441e+000;2.8860480452e+000;2.9586330938e+000;3.1143561105e+000;3.1187734041e+000;2.9854203589e+000;3.0839621313e+000;3.3238219930e+000;3.2323291567e+000;3.2708031483e+000;3.0247040305e+000;2.9568987804e+000;
1.7929687500e+000;2.9511517606e+000;3.0159255636e+000;3.0019841104e+000;2.8602219572e+000;2.7324899882e+000;2.8146959612e+000;2.9888876735e+000;2.6557956476e+000;2.4885177690e+000;2.5175510580e+000;2.4502876390e+000;2.2789443107e+000;2.5388281992e+000;2.2013644427e+000;2.1533450604e+000;2.2702740188e+000;2.6162214758e+000;2.4413732829e+000;2.5266775638e+000;2.6360750060e+000;2.6527712569e+000;2.5446844185e+000;2.6450108998e+000;2.8561826176e+000;2.8881482570e+000;2.6645083167e+000;2.8301358975e+000;3.1010047637e+000;2.9792065342e+000;3.0075284168e+000;2.7583737648e+000;2.6188694547e+000;
1.8925781250e+000;3.0624383186e+000;3.1510143757e+000;3.0423764240e+000;2.9391698180e+000;2.7923648592e+000;2.8853010794e+000;3.0474378877e+000;2.7221420058e+000;2.5811628848e+000;2.6236907503e+000;2.5403553570e+000;2.3519754413e+000;2.5570927432e+000;2.3444705003e+000;2.3029643237e+000;2.3583378820e+000;2.7141492988e+000;2.4736106819e+000;2.5951933395e+000;2.6858245057e+000;2.7427804959e+000;2.6176525509e+000;2.7550375621e+000;2.8944953792e+000;3.0380692620e+000;2.7834109026e+000;2.9784837192e+000;3.2266373593e+000;3.1039529023e+000;3.2390147910e+000;2.8843880137e+000;2.6527631151e+000;
1.9921875000e+000;3.4801252327e+000;3.1309075731e+000;3.2119756307e+000;3.0928363895e+000;2.9305397007e+000;3.1691863191e+000;3.0472059565e+000;2.8912632705e+000;2.7273425384e+000;2.7042988810e+000;2.6778264504e+000;2.4264372139e+000;2.6047477885e+000;2.3756853099e+000;2.4132158668e+000;2.4389192600e+000;2.6753481207e+000;2.4882542059e+000;2.6190154568e+000;2.7189663703e+000;2.8163250302e+000;2.6920993478e+000;2.8247299625e+000;3.1101192673e+000;3.1041919047e+000;2.9046300870e+000;3.0703929474e+000;3.3367153083e+000;3.1509348555e+000;3.3805339400e+000;3.0144490282e+000;2.7773083287e+000;
2.0917968750e+000;3.1333965728e+000;3.0834160888e+000;3.0713082967e+000;2.9418551691e+000;2.8435261852e+000;2.9417463127e+000;3.0541106734e+000;2.7688695443e+000;2.6740314869e+000;2.6003565807e+000;2.6391559708e+000;2.3903638741e+000;2.5884241822e+000;2.3274743415e+000;2.4207354482e+000;2.4748826702e+000;2.7353295207e+000;2.4937828573e+000;2.5955379369e+000;2.6951271742e+000;2.7860134775e+000;2.6546351472e+000;2.8098547915e+000;2.9517418144e+000;3.0603023254e+000;2.8820249908e+000;3.0478393711e+000;3.2519743477e+000;3.1460031692e+000;3.1810428888e+000;2.9568088582e+000;2.7362656251e+000;
2.1914062500e+000;3.0886601419e+000;3.0615503073e+000;3.0057994960e+000;2.8823878014e+000;2.8176784333e+000;2.9348781495e+000;3.2783636767e+000;2.7688962382e+000;2.6204466405e+000;2.6941865597e+000;2.7709533922e+000;2.4523740729e+000;2.5188506251e+000;2.3670986935e+000;2.5739144976e+000;2.5686574762e+000;2.7585290732e+000;2.4922536821e+000;2.5887415975e+000;2.7693307972e+000;2.7827160630e+000;2.6080078143e+000;2.7927792900e+000;3.0025731937e+000;3.0547285697e+000;2.8192848868e+000;3.0315727644e+000;3.2386342830e+000;3.1478306702e+000;3.0308914895e+000;2.9467259821e+000;2.7002533679e+000;
2.2910156250e+000;2.9223483505e+000;2.8534855601e+000;2.8144352320e+000;2.6400061495e+000;2.6631435774e+000;2.6168831746e+000;3.1298300861e+000;2.6213032708e+000;2.4930622259e+000;2.5840816369e+000;2.6333821223e+000;2.4491825581e+000;2.4959413787e+000;2.4007664994e+000;2.6421902327e+000;2.6077738357e+000;2.7991669469e+000;2.5299034191e+000;2.5740152675e+000;2.7004978069e+000;2.7018343465e+000;2.5748766874e+000;2.6939858015e+000;2.9804167420e+000;2.8984801725e+000;2.7078792433e+000;2.9101044307e+000;3.0933613686e+000;2.9569728924e+000;2.7674195564e+000;2.7721803393e+000;2.6025254515e+000;
2.3906250000e+000;3.0441453641e+000;3.1569833676e+000;3.0264585818e+000;2.9753134911e+000;2.9273051737e+000;2.9335407771e+000;3.3381164032e+000;2.8386407438e+000;2.8301631116e+000;2.8246764731e+000;2.9089429630e+000;2.7237404586e+000;2.7713195269e+000;2.7079333946e+000;2.8859023793e+000;2.8750833610e+000;3.0852767522e+000;2.9090562744e+000;2.9134661523e+000;3.0571605635e+000;2.9597738256e+000;2.8690676965e+000;2.9478581616e+000;3.0184618629e+000;3.0875926982e+000;2.9874700813e+000;3.0961796857e+000;3.2218264914e+000;3.1443033760e+000;3.0637369583e+000;3.0339064155e+000;2.8741722608e+000;
2.4902343750e+000;3.4346223761e+000;3.0933069136e+000;3.2202498036e+000;3.0066592010e+000;3.0140756590e+000;3.0411798303e+000;3.1861538411e+000;2.9444676459e+000;2.8965595942e+000;2.8602622076e+000;2.8842097350e+000;2.7503701571e+000;2.8419831531e+000;2.7410960612e+000;2.8994558671e+000;2.8856633578e+000;3.1608319315e+000;2.9153612273e+000;2.9466799235e+000;3.1614410837e+000;3.0799218221e+000;2.9504171320e+000;3.0345021465e+000;3.3417060557e+000;3.2575013683e+000;3.0811059914e+000;3.2032858353e+000;3.3807262291e+000;3.1988014850e+000;3.2954583324e+000;3.0959483320e+000;3.0021090343e+000;
2.5898437500e+000;3.3840347981e+000;3.2167856328e+000;3.1601745884e+000;3.0317046593e+000;3.0352074523e+000;2.9399150375e+000;3.3735746090e+000;3.0201008873e+000;2.9044048245e+000;2.9623331899e+000;3.0245462670e+000;2.7901803699e+000;2.7292564387e+000;2.7607016951e+000;3.0304160822e+000;2.9253706155e+000;3.1192092327e+000;2.7845521287e+000;2.8504165427e+000;3.1177144873e+000;3.0643261575e+000;2.8694983826e+000;3.0248060204e+000;3.2578470317e+000;3.2696540243e+000;3.0761910708e+000;3.2563725941e+000;3.3929133171e+000;3.3290370599e+000;3.1602232469e+000;3.1492708379e+000;2.9748245897e+000;
2.6894531250e+000;3.1783878637e+000;3.1750169168e+000;3.2147699603e+000;3.0172261442e+000;2.9946107333e+000;2.9766575904e+000;3.3584742724e+000;2.9800641403e+000;2.7676989146e+000;2.8567526795e+000;2.8289317937e+000;2.5565902712e+000;2.6229963877e+000;2.4695129210e+000;2.6286072609e+000;2.7173947219e+000;3.0028544923e+000;2.6520735879e+000;2.7476435820e+000;2.9516435067e+000;2.9832220474e+000;2.7689508954e+000;2.9733904747e+000;3.0122573048e+000;3.2491960445e+000;3.0025199154e+000;3.1988597784e+000;3.3973597635e+000;3.2543939603e+000;3.1928418474e+000;3.0550974558e+000;2.9191441889e+000;
2.7890625000e+000;3.2747020102e+000;3.2769925765e+000;3.2879755015e+000;3.1168598958e+000;3.0661196458e+000;3.1789136154e+000;3.4154230390e+000;3.0740952949e+000;2.8763690330e+000;2.9679573216e+000;2.8973966607e+000;2.6405441526e+000;2.6743405058e+000;2.4632948351e+000;2.4591525898e+000;2.5467974541e+000;2.8619501655e+000;2.5680372417e+000;2.7355814414e+000;2.9418762616e+000;2.9351468430e+000;2.7817016014e+000;2.9466314442e+000;3.1561188384e+000;3.2058953184e+000;3.0255918976e+000;3.2455849304e+000;3.3124390917e+000;3.3222422810e+000;3.1062391254e+000;3.1108643557e+000;2.9392262481e+000;
2.8886718750e+000;3.3393635443e+000;3.2972265107e+000;3.3928857759e+000;3.1613740990e+000;3.1709036316e+000;3.2823278669e+000;3.2833401723e+000;3.1019766545e+000;2.9475532530e+000;2.9223975730e+000;2.8813203803e+000;2.6399269343e+000;2.7066122632e+000;2.4801104900e+000;2.4758983995e+000;2.5218885544e+000;2.7394527457e+000;2.5586068984e+000;2.8184212394e+000;2.9975557057e+000;3.0089656551e+000;2.8714490632e+000;3.0390851460e+000;3.1040814241e+000;3.2305202269e+000;3.1123469985e+000;3.1924858095e+000;3.3700462775e+000;3.2897402744e+000;3.3400058116e+000;3.1212137502e+000;3.0672035883e+000;
2.9882812500e+000;3.4859431028e+000;3.3289075825e+000;3.3227544921e+000;3.2177278094e+000;3.1713435547e+000;3.1974073002e+000;3.4354259501e+000;3.0767224762e+000;2.9184183345e+000;2.8991442496e+000;2.8653252140e+000;2.6938281772e+000;2.7607898946e+000;2.6014515322e+000;2.6073679347e+000;2.6149995272e+000;2.8607701335e+000;2.5904087023e+000;2.7558522504e+000;2.9243803571e+000;2.8517110714e+000;2.8474615872e+000;2.9579163288e+000;3.0996966495e+000;3.1494738572e+000;3.1259949005e+000;3.2733201235e+000;3.3545124210e+000;3.3603025534e+000;3.3331330726e+000;3.2190158582e+000;3.0703708373e+000;
3.0878906250e+000;3.4637063999e+000;3.3947363406e+000;3.4243715325e+000;3.2802708263e+000;3.1575680635e+000;3.2088442065e+000;3.5207687171e+000;3.0732720824e+000;2.9700724910e+000;2.9757814082e+000;2.9055999643e+000;2.8035453604e+000;2.8398562564e+000;2.7202736310e+000;2.8375049509e+000;2.8161790580e+000;3.0536906004e+000;2.7520580159e+000;2.8843245658e+000;2.9552231886e+000;2.8870200393e+000;2.8930129283e+000;2.9835944188e+000;2.9298022262e+000;3.1230873129e+000;3.0628760100e+000;3.1580189138e+000;3.3506810799e+000;3.4191228487e+000;3.1517084483e+000;3.2589070503e+000;3.0317843741e+000;
3.1875000000e+000;3.4037767344e+000;3.3029013123e+000;3.3425713753e+000;3.1987594036e+000;3.1031347565e+000;3.1807534237e+000;3.4385642874e+000;3.0881844244e+000;2.9665083856e+000;3.0064565720e+000;2.9882899950e+000;2.8852214815e+000;2.9102262114e+000;2.8356568511e+000;2.9653369703e+000;2.9673670059e+000;3.2081976312e+000;2.8987952663e+000;2.9445205946e+000;3.0551747375e+000;2.8997677807e+000;2.8980290527e+000;2.9222331476e+000;2.9015978987e+000;3.0635295087e+000;2.9962784402e+000;3.1942916710e+000;3.2901573695e+000;3.3505969026e+000;3.4961198834e+000;3.1922995016e+000;3.0091242745e+000;
3.2871093750e+000;3.3184692167e+000;3.5255686617e+000;3.5370310111e+000;3.3950579018e+000;3.3719005141e+000;3.4261488429e+000;3.5650646608e+000;3.3991966116e+000;3.3317479227e+000;3.3204905956e+000;3.3655773015e+000;3.2558926479e+000;3.3053837514e+000;3.2667178233e+000;3.2199210914e+000;3.3392032302e+000;3.6180963209e+000;3.3619053806e+000;3.3598371931e+000;3.5263004608e+000;3.3297884651e+000;3.3222214561e+000;3.3563191413e+000;3.0993598684e+000;3.4422193220e+000;3.3037358859e+000;3.3999654530e+000;3.5020114780e+000;3.4296120720e+000;3.3981232726e+000;3.3969123536e+000;3.3489932619e+000;
3.3867187500e+000;3.0048808179e+000;3.0457982167e+000;3.1679183094e+000;3.0086357802e+000;2.9610390691e+000;3.0725426402e+000;3.3623994054e+000;2.9506207643e+000;2.9086116811e+000;2.9091906568e+000;2.9247933405e+000;2.7060150577e+000;2.9185326513e+000;2.6778508518e+000;2.7055314742e+000;2.6683704345e+000;2.7678746388e+000;2.7070648825e+000;2.7162946142e+000;2.8220626025e+000;2.6808315053e+000;2.7874169026e+000;2.7552890491e+000;2.8934668386e+000;2.8889739044e+000;2.8208863488e+000;2.9191743746e+000;3.1252154521e+000;3.0015599667e+000;2.7734925142e+000;3.0018532875e+000;2.9596548340e+000;
3.4863281250e+000;3.0436581779e+000;3.1842537010e+000;3.2429804927e+000;3.1165809712e+000;3.0735270698e+000;3.1528200982e+000;3.3390350531e+000;2.9966358472e+000;2.9883250825e+000;2.9163190649e+000;2.9178095404e+000;2.7179241762e+000;2.8627537888e+000;2.6889035220e+000;2.7600697668e+000;2.6333912873e+000;2.6605541266e+000;2.5271550567e+000;2.6263406462e+000;2.7950400698e+000;2.6884844590e+000;2.7791609238e+000;2.7911622442e+000;2.9544229627e+000;2.9508216105e+000;2.9627967672e+000;3.0175046483e+000;3.1888306379e+000;3.0818567934e+000;2.8765802674e+000;3.1411285641e+000;3.0542826649e+000;
3.5859375000e+000;3.0893406928e+000;3.1265089606e+000;3.1922973900e+000;3.0807992832e+000;3.0676860306e+000;3.1184652976e+000;3.2771446355e+000;2.9680327540e+000;2.9621017960e+000;2.8854779293e+000;2.8699067675e+000;2.6743612270e+000;2.7889515783e+000;2.6111314539e+000;2.6619485745e+000;2.5353187239e+000;2.5854279200e+000;2.4246841609e+000;2.5754190281e+000;2.7601279354e+000;2.6731463447e+000;2.7643119971e+000;2.7971746676e+000;2.9492264872e+000;2.9416230036e+000;2.9879382054e+000;3.0345739738e+000;3.1223567727e+000;3.0648514861e+000;2.8853907185e+000;3.1278023787e+000;3.0487620208e+000;
3.6855468750e+000;3.1089849757e+000;3.1503897627e+000;3.2120152198e+000;3.1029333565e+000;3.0610221319e+000;3.1276863218e+000;3.3118243498e+000;2.9635550422e+000;2.9138372312e+000;2.8667507789e+000;2.8307836973e+000;2.6228381428e+000;2.6594804818e+000;2.5358516701e+000;2.5891650853e+000;2.4468974456e+000;2.5311757098e+000;2.3128387167e+000;2.4939646748e+000;2.8173109570e+000;2.6694451960e+000;2.6864085363e+000;2.7918599939e+000;2.9606289883e+000;2.9555194002e+000;2.9887523048e+000;3.0576209546e+000;3.1373816014e+000;3.0971451795e+000;2.8679737516e+000;3.1542573422e+000;3.0169941278e+000;
3.7851562500e+000;3.2667976716e+000;3.1506800433e+000;3.3118430360e+000;3.2256911801e+000;3.2450907705e+000;3.3160213129e+000;3.1407927355e+000;3.1806464863e+000;3.1303826662e+000;3.0711171934e+000;3.0112784937e+000;2.8902154519e+000;3.0441014723e+000;2.8864400444e+000;3.0395205212e+000;2.9294911001e+000;2.9719350490e+000;2.8647450356e+000;2.9129622424e+000;2.9555156748e+000;2.9170242322e+000;3.0195198842e+000;3.0495085245e+000;3.1690743832e+000;3.1098348543e+000;3.2022449662e+000;3.2095309516e+000;3.2539628038e+000;3.1778563309e+000;3.1843541578e+000;3.2447780768e+000;3.2386691334e+000;
3.8847656250e+000;2.9722300602e+000;2.9572919879e+000;3.0839705831e+000;2.9928870635e+000;2.9964726225e+000;3.0286437361e+000;3.1260624645e+000;2.8655959417e+000;2.8725061932e+000;2.7829379631e+000;2.7487276455e+000;2.5739563296e+000;2.7492227404e+000;2.5366639757e+000;2.6136761232e+000;2.4299723701e+000;2.4331125073e+000;2.3565502167e+000;2.4631457187e+000;2.6233129774e+000;2.5183833539e+000;2.6567963639e+000;2.6980090340e+000;2.8533311416e+000;2.8416195428e+000;2.9443498059e+000;2.9628127724e+000;3.0284426806e+000;2.9828688825e+000;2.8023875923e+000;3.0513490583e+000;2.9706222946e+000;
3.9843750000e+000;3.0291395753e+000;2.9855326816e+000;3.1016880889e+000;3.0241696377e+000;3.0234392971e+000;3.0553553506e+000;3.1397217381e+000;2.8947582411e+000;2.9126212207e+000;2.8105986484e+000;2.7631653236e+000;2.6077617960e+000;2.8114050896e+000;2.5569752545e+000;2.6619194428e+000;2.4558582649e+000;2.4709736209e+000;2.3995648154e+000;2.5239381252e+000;2.6476456290e+000;2.5597838693e+000;2.7258945849e+000;2.7491683765e+000;2.8991753917e+000;2.8854603277e+000;2.9931006526e+000;3.0325920869e+000;3.0940901464e+000;3.0327457287e+000;2.8806302740e+000;3.0803187102e+000;3.0172500375e+000;
4.0839843750e+000;3.0495593483e+000;3.0812694101e+000;3.1290492662e+000;3.0613411350e+000;3.0733436273e+000;3.0873938155e+000;3.1511871716e+000;2.9347307667e+000;2.9572526016e+000;2.8518053428e+000;2.7800297496e+000;2.6374289710e+000;2.9045774649e+000;2.5845430245e+000;2.6212428273e+000;2.4656683567e+000;2.5286425018e+000;2.5237055047e+000;2.6549453240e+000;2.7504091060e+000;2.6657942840e+000;2.7911841859e+000;2.8091387440e+000;2.9615705787e+000;2.9444082714e+000;3.0307374908e+000;3.0685640462e+000;3.1455884261e+000;3.0896887669e+000;2.9542452338e+000;3.1255504526e+000;3.0662991880e+000;
4.1835937500e+000;3.1801886688e+000;3.0520766319e+000;3.2122499104e+000;3.0917927615e+000;3.0795289268e+000;3.1415036090e+000;3.2544361273e+000;2.9540489252e+000;2.9118479614e+000;2.9233595056e+000;2.8502433312e+000;2.6190653572e+000;2.6086491232e+000;2.5239784699e+000;2.6736941048e+000;2.5398228068e+000;2.6865309936e+000;2.4204707012e+000;2.6051279370e+000;2.9356656645e+000;2.8066470127e+000;2.7533478473e+000;2.8934610062e+000;3.0866266948e+000;3.0492030567e+000;3.0730065966e+000;3.1173070031e+000;3.2260785518e+000;3.1258139686e+000;3.0131125860e+000;3.1478169478e+000;3.0539476366e+000;
4.2832031250e+000;3.2008588235e+000;3.1004299800e+000;3.3082114975e+000;3.1454532680e+000;3.1356946491e+000;3.2352091036e+000;3.3087855750e+000;3.0401432188e+000;2.9675274070e+000;3.0022238585e+000;2.9683508140e+000;2.6855186848e+000;2.6138231660e+000;2.5863937037e+000;2.8014519141e+000;2.6887640628e+000;2.8200509388e+000;2.5699052553e+000;2.7447118413e+000;3.1487775460e+000;2.9519060101e+000;2.8314052934e+000;2.9762338750e+000;3.2181455600e+000;3.1237122094e+000;3.0908431042e+000;3.1782701659e+000;3.3140028447e+000;3.1545480036e+000;2.9648626526e+000;3.1727506378e+000;3.0915698051e+000;
4.3828125000e+000;3.2186897678e+000;3.0462544257e+000;3.2526411980e+000;3.0608514961e+000;3.0660950867e+000;3.1594561019e+000;3.2407976129e+000;2.9806311824e+000;2.9765097020e+000;2.9446312070e+000;2.9309725729e+000;2.6810002648e+000;2.7811848443e+000;2.6383270040e+000;2.8220844554e+000;2.7450181014e+000;2.9065691926e+000;2.7447054705e+000;2.8030031319e+000;3.1088472109e+000;2.9233075550e+000;2.8469741825e+000;2.9527103913e+000;3.1518772065e+000;3.1082718678e+000;3.0256718593e+000;3.1236209786e+000;3.2784406486e+000;3.1170302874e+000;3.0045997028e+000;3.0998134083e+000;3.0377429794e+000;
4.4824218750e+000;3.2970018723e+000;3.2069798145e+000;3.2739808446e+000;3.1586982794e+000;3.0995889767e+000;3.1602953581e+000;3.1841984448e+000;2.9654576212e+000;2.9169914686e+000;2.9067976008e+000;2.8784121181e+000;2.6518044861e+000;2.5260556695e+000;2.6054593853e+000;2.9347247419e+000;2.8372733367e+000;2.9245669815e+000;2.5638857644e+000;2.6904372610e+000;3.1240613849e+000;2.8911730191e+000;2.7503410960e+000;2.9349253696e+000;3.1320158475e+000;3.0640793805e+000;3.0581587209e+000;3.1755641463e+000;3.2856714843e+000;3.1983377996e+000;3.1405301518e+000;3.1710715727e+000;3.0133672309e+000;
4.5820312500e+000;3.7206606431e+000;3.5137909277e+000;3.4387249718e+000;3.3227191979e+000;3.2054473663e+000;3.2786912103e+000;3.2334277713e+000;3.0788886508e+000;3.0222726913e+000;2.9973435407e+000;3.0053319153e+000;2.8212009181e+000;2.6384215656e+000;2.7906423820e+000;3.0409381876e+000;2.9107497279e+000;3.0077856827e+000;2.6537528948e+000;2.7706299440e+000;3.1847740136e+000;2.9680605691e+000;2.8567272853e+000;3.0542525336e+000;3.2258037859e+000;3.1572939207e+000;3.2185125008e+000;3.3494297316e+000;3.4393321616e+000;3.5011289492e+000;3.4446365407e+000;3.3948702220e+000;3.1238524519e+000;
4.6816406250e+000;3.2618842939e+000;3.1941020316e+000;3.2985356558e+000;3.0969997921e+000;3.0670505558e+000;3.1653253213e+000;3.3096099123e+000;2.9651393006e+000;2.8643827170e+000;2.9283151929e+000;2.9572045868e+000;2.6500003479e+000;2.5046923582e+000;2.5870023215e+000;2.9976317057e+000;2.9132432467e+000;3.0351857752e+000;2.5866310629e+000;2.6895466494e+000;3.1067242542e+000;2.8889968031e+000;2.7397908232e+000;2.9326543409e+000;3.0655357210e+000;3.0697474178e+000;2.9840968393e+000;3.0868813029e+000;3.2394262216e+000;3.1639332285e+000;2.9685292927e+000;3.1007106939e+000;2.9879765509e+000;
4.7812500000e+000;3.3671055178e+000;3.3615605086e+000;3.3990681825e+000;3.2354651279e+000;3.1534724530e+000;3.2981916900e+000;3.3104552561e+000;3.0740233889e+000;2.9804965491e+000;3.0570528918e+000;3.0972426502e+000;2.8843889093e+000;2.6406453175e+000;2.8625145530e+000;3.1988570589e+000;3.0698413650e+000;3.0587401720e+000;2.6742520305e+000;2.7908311737e+000;3.1621333374e+000;2.9891360205e+000;2.8251945920e+000;3.0314464261e+000;3.1029664498e+000;3.1642032520e+000;3.1200574728e+000;3.2295135404e+000;3.3360256845e+000;3.3055129921e+000;3.1372388127e+000;3.2499044531e+000;3.0708765825e+000;
4.8808593750e+000;3.5947608782e+000;3.4165177493e+000;3.5522154482e+000;3.3040016265e+000;3.2368655262e+000;3.3970033895e+000;3.5166714501e+000;3.2007625727e+000;3.0080158624e+000;3.2424703874e+000;3.3095109823e+000;2.9751783648e+000;2.6715462318e+000;2.9200828845e+000;3.3440102963e+000;3.2138496213e+000;3.2144567471e+000;2.7538577845e+000;2.8966330569e+000;3.3453261890e+000;3.1286385289e+000;2.9175351095e+000;3.1680109304e+000;3.2625008759e+000;3.3026616305e+000;3.1951760271e+000;3.3313451267e+000;3.4848302901e+000;3.3578096397e+000;3.2329876921e+000;3.2908351778e+000;3.1401689831e+000;
4.9804687500e+000;3.8228725808e+000;3.5008325207e+000;3.6602960904e+000;3.4422764596e+000;3.3709948375e+000;3.5097342464e+000;3.5033788976e+000;3.2962678293e+000;3.1013007641e+000;3.2520298186e+000;3.2414458394e+000;2.9815087729e+000;2.7471393070e+000;2.9166088990e+000;3.2223548488e+000;3.1618401947e+000;3.2088966212e+000;2.8741940665e+000;3.0119149570e+000;3.4018042709e+000;3.2272085252e+000;3.0311649137e+000;3.2565757394e+000;3.4873477495e+000;3.4146155236e+000;3.3152606200e+000;3.4471573961e+000;3.5999635515e+000;3.5519995538e+000;3.4688174710e+000;3.4287540513e+000;3.2374121618e+000;
5.0800781250e+000;3.5931577671e+000;3.4152203264e+000;3.5034214579e+000;3.2695858472e+000;3.1799167340e+000;3.3741605103e+000;3.4433919721e+000;3.1439823581e+000;3.0185856885e+000;3.1602275752e+000;3.1985562173e+000;2.9663508856e+000;2.7477499641e+000;3.0041480988e+000;3.3214696274e+000;3.2555018764e+000;3.3117746837e+000;2.9479684376e+000;2.9664811773e+000;3.3869831809e+000;3.1316356982e+000;2.9111382395e+000;3.0928556249e+000;3.4892032537e+000;3.1867919998e+000;3.1097205300e+000;3.2429185827e+000;3.4059805640e+000;3.3408841400e+000;3.1906406145e+000;3.2409067785e+000;3.0804687553e+000;
5.1796875000e+000;3.6329725986e+000;3.4664015514e+000;3.5449143763e+000;3.3287487750e+000;3.2130515143e+000;3.4018542900e+000;3.5285637012e+000;3.1815380783e+000;3.0811764824e+000;3.1997490978e+000;3.2480303114e+000;3.0329138352e+000;2.8624728812e+000;3.0688412827e+000;3.3728928577e+000;3.3134714080e+000;3.3502102108e+000;3.0010487214e+000;2.9579247641e+000;3.3510731036e+000;3.1310735536e+000;2.9581958474e+000;3.1069136450e+000;3.3799373592e+000;3.2275335093e+000;3.1496233396e+000;3.2434936644e+000;3.4830348468e+000;3.3307156066e+000;3.5338763142e+000;3.2834215691e+000;3.1348720375e+000;
5.2792968750e+000;3.6595977130e+000;3.5110866759e+000;3.6174749618e+000;3.4145309818e+000;3.2889116734e+000;3.5082751961e+000;3.5235165927e+000;3.2835049825e+000;3.1903751810e+000;3.2440766257e+000;3.2864768429e+000;3.1121325253e+000;2.9906509802e+000;3.1585645741e+000;3.4217733263e+000;3.3893390111e+000;3.4612748195e+000;3.1231296534e+000;3.0718673259e+000;3.4095963773e+000;3.1553228492e+000;3.0732386177e+000;3.1574963685e+000;3.3504995300e+000;3.2329279080e+000;3.1924764383e+000;3.3064814964e+000;3.4450606138e+000;3.4791652567e+000;3.1644371170e+000;3.3612106285e+000;3.2303126002e+000;
5.3789062500e+000;3.7847784187e+000;3.6167592483e+000;3.7057986542e+000;3.4643760207e+000;3.4141936097e+000;3.5954256437e+000;3.5706940674e+000;3.4103967260e+000;3.2797605011e+000;3.3586852232e+000;3.3480208037e+000;3.1852640311e+000;3.1119437537e+000;3.1859188291e+000;3.4602093741e+000;3.4304158633e+000;3.4623347537e+000;3.1409357240e+000;3.1933844790e+000;3.5258512048e+000;3.3148367680e+000;3.2199327374e+000;3.2854442272e+000;3.6355789593e+000;3.3700045769e+000;3.3200367457e+000;3.3828011180e+000;3.5423042164e+000;3.4712630869e+000;3.4227936225e+000;3.4543245365e+000;3.3912070127e+000;
5.4785156250e+000;3.7789660931e+000;3.5591447883e+000;3.6303388137e+000;3.4392051279e+000;3.3621906698e+000;3.5040698971e+000;3.7260524654e+000;3.3709272553e+000;3.2574200076e+000;3.3882799425e+000;3.3945032201e+000;3.1904004949e+000;3.0817010606e+000;3.1845005314e+000;3.4502681065e+000;3.3381563892e+000;3.3108983236e+000;3.0149418971e+000;3.0847337185e+000;3.3722298380e+000;3.2306200511e+000;3.1577586916e+000;3.2501735993e+000;3.4218052564e+000;3.4226338433e+000;3.2872560397e+000;3.4159592090e+000;3.5841612677e+000;3.4813998279e+000;3.4396466065e+000;3.3973502662e+000;3.3260398981e+000;
5.5781250000e+000;3.5266321519e+000;3.4729460636e+000;3.4408920138e+000;3.2735281975e+000;3.2313782500e+000;3.3511323832e+000;3.2955617392e+000;3.1832770045e+000;3.0981397888e+000;3.1220432905e+000;3.1694987577e+000;3.0225784172e+000;2.9132935473e+000;3.0783599689e+000;3.4152506488e+000;3.2562730335e+000;3.2341572389e+000;2.9252313590e+000;2.9330451289e+000;3.2149644763e+000;3.0531500956e+000;2.9921649093e+000;3.0669847360e+000;3.3572159870e+000;3.1774079455e+000;3.1951420947e+000;3.2613633509e+000;3.3574617086e+000;3.3935367561e+000;3.2456360926e+000;3.3090117549e+000;3.1739858630e+000;
5.6777343750e+000;3.3266233469e+000;3.1636238988e+000;3.1743266893e+000;2.9663755380e+000;2.9090959782e+000;3.0618829934e+000;3.1188346294e+000;2.8696150180e+000;2.7889495090e+000;2.8480113948e+000;2.9222288051e+000;2.7317227907e+000;2.5895692541e+000;2.8047446785e+000;3.1773671628e+000;3.0352329178e+000;3.0391316279e+000;2.7195621837e+000;2.6698178033e+000;3.0361434430e+000;2.7938121210e+000;2.6750121009e+000;2.7871767279e+000;3.0630520018e+000;2.9077553593e+000;2.8694699613e+000;2.9858656331e+000;3.1107272783e+000;3.1051151213e+000;2.9206058105e+000;2.9971031290e+000;2.8616385021e+000;
5.7773437500e+000;3.3631432625e+000;3.0712326914e+000;3.0976304736e+000;2.8532963448e+000;2.8222999879e+000;3.0091919203e+000;3.1003451729e+000;2.8127029958e+000;2.7042292863e+000;2.8115044651e+000;2.9033427338e+000;2.6861104408e+000;2.4811260252e+000;2.7472013709e+000;3.1207448505e+000;3.0564106263e+000;3.1468178789e+000;2.7552035095e+000;2.6979445899e+000;3.1476409063e+000;2.8877003449e+000;2.6439828293e+000;2.7908901033e+000;3.2193497753e+000;2.9057171929e+000;2.8382242914e+000;2.9481678469e+000;3.0795660952e+000;3.0407083210e+000;2.8863185781e+000;2.9001808278e+000;2.7729771652e+000;
5.8769531250e+000;3.3182793898e+000;3.1202690103e+000;3.1399716234e+000;2.9161286130e+000;2.8941668256e+000;3.0866288643e+000;3.1854797721e+000;2.9138561093e+000;2.8154031163e+000;2.9708440255e+000;3.1009456790e+000;2.8425494692e+000;2.6290584709e+000;2.8909824174e+000;3.3403778273e+000;3.1656748301e+000;3.1098752081e+000;2.8361948384e+000;2.7885059113e+000;3.1591011667e+000;2.9450573099e+000;2.7599415670e+000;2.8957170157e+000;3.2327302509e+000;3.0100078298e+000;2.9227474277e+000;3.0582125314e+000;3.1535813689e+000;3.0842051171e+000;2.9520282518e+000;2.9364173002e+000;2.8544748745e+000;
5.9765625000e+000;3.3450362790e+000;3.1439412181e+000;3.1821864498e+000;2.9383547471e+000;2.9662362499e+000;3.1704085783e+000;3.1624612294e+000;3.0252828842e+000;2.9189700714e+000;3.0520958792e+000;3.2065231619e+000;2.9549182880e+000;2.6896133278e+000;3.0077783194e+000;3.4755665572e+000;3.2837544378e+000;3.2086977968e+000;2.8666997987e+000;2.8390508605e+000;3.2537982739e+000;2.9700741957e+000;2.8045498692e+000;2.9171513823e+000;3.1929431484e+000;3.0151041955e+000;2.9558281637e+000;3.0411907408e+000;3.1484419346e+000;3.0884904086e+000;3.0111584422e+000;3.0063682741e+000;2.9652723173e+000;
6.0761718750e+000;3.4006026963e+000;3.1745085739e+000;3.2465057299e+000;3.0544826423e+000;3.0601791649e+000;3.2111361142e+000;3.2250512435e+000;3.0571188898e+000;2.9561732427e+000;3.0435653780e+000;3.1400784522e+000;2.9486732725e+000;2.7752172900e+000;2.9965554969e+000;3.4122111479e+000;3.2782019343e+000;3.2190506297e+000;2.9168977198e+000;2.8881594004e+000;3.2274190547e+000;3.0067707440e+000;2.8911198719e+000;2.9680934209e+000;3.2232885823e+000;3.0783613002e+000;3.0168629161e+000;3.0869536160e+000;3.1928445700e+000;3.1248479153e+000;2.9893867358e+000;3.0464718633e+000;3.0202795403e+000;
6.1757812500e+000;4.1575929260e+000;4.1612519734e+000;4.0864966235e+000;4.0474807191e+000;4.0441974816e+000;4.0273971087e+000;4.1427815672e+000;3.9726639313e+000;3.8802148357e+000;3.9586548835e+000;3.9360097509e+000;3.8651877505e+000;3.7144289563e+000;3.8223833843e+000;3.9767666735e+000;3.9601844374e+000;3.9828361014e+000;3.7609010154e+000;3.8223468527e+000;4.0275038590e+000;3.9805365189e+000;3.8848798730e+000;4.0270221179e+000;4.0722384745e+000;4.1050686276e+000;4.0717133941e+000;4.1219043950e+000;4.1832066082e+000;4.1751520705e+000;4.1011666823e+000;4.0898016345e+000;4.0014887336e+000;
6.2753906250e+000;3.3101913120e+000;2.9894551910e+000;3.0113297699e+000;2.7876509867e+000;2.7592939989e+000;2.8679390221e+000;3.0203411518e+000;2.7307542431e+000;2.6836131785e+000;2.7030032012e+000;2.7628765833e+000;2.6690492612e+000;2.7187589324e+000;2.7406593637e+000;3.1634774599e+000;3.0906743215e+000;3.1190449646e+000;2.8469199662e+000;2.8201767606e+000;3.0482952242e+000;2.8523714587e+000;2.7513616208e+000;2.7854654647e+000;3.0177717723e+000;2.8804693360e+000;2.7246982641e+000;2.8929694629e+000;2.9820597585e+000;3.0249815813e+000;2.7697941012e+000;2.7656740954e+000;2.7182386706e+000;
6.3750000000e+000;3.3252811362e+000;2.9681908920e+000;3.0309678126e+000;2.7723462777e+000;2.7014416051e+000;2.8831104075e+000;3.0873014452e+000;2.7446069452e+000;2.6567904995e+000;2.7558146507e+000;2.8303113502e+000;2.6984062515e+000;2.6717155696e+000;2.8006292048e+000;3.2474751524e+000;3.1752064542e+000;3.1912819067e+000;2.8971230542e+000;2.8365382289e+000;3.1008097292e+000;2.8974387039e+000;2.7214170846e+000;2.7809947625e+000;3.0721352707e+000;2.8666220661e+000;2.6432747026e+000;2.8257793407e+000;3.0069642866e+000;2.9674523872e+000;2.8868297692e+000;2.7070534627e+000;2.6879799397e+000;
6.4746093750e+000;3.3321137895e+000;3.0299136420e+000;3.0629241601e+000;2.8254112301e+000;2.7291961263e+000;2.9216680842e+000;3.2564586956e+000;2.7807746468e+000;2.6753195728e+000;2.7932117375e+000;2.8282448024e+000;2.7050237265e+000;2.7021323091e+000;2.7796164727e+000;3.1644096076e+000;3.1039912226e+000;3.1771295165e+000;2.8937783991e+000;2.8288615018e+000;3.0974908218e+000;2.8986868390e+000;2.7203136198e+000;2.7846606669e+000;3.0559319137e+000;2.8884157189e+000;2.6306367509e+000;2.8254554559e+000;3.0269676602e+000;3.0239430750e+000;2.8210523834e+000;2.7367502676e+000;2.6823841857e+000;
6.5742187500e+000;3.3641297032e+000;3.0864181042e+000;3.1054720731e+000;2.8886089216e+000;2.8070719795e+000;2.9624768622e+000;3.2135369376e+000;2.8222534345e+000;2.7050537036e+000;2.8055345156e+000;2.8509572424e+000;2.7115853721e+000;2.7579836053e+000;2.7690109633e+000;3.1710167197e+000;3.1219192811e+000;3.2031991805e+000;2.9152362295e+000;2.8499510417e+000;3.1088707947e+000;2.9061173185e+000;2.7487635820e+000;2.8059098100e+000;3.0449108774e+000;2.9257741298e+000;2.6896645096e+000;2.8801058448e+000;3.0630761823e+000;3.0726746804e+000;2.8473409804e+000;2.8085687520e+000;2.7328901015e+000;
6.6738281250e+000;3.3498412413e+000;3.1405738210e+000;3.1311518542e+000;2.9399155816e+000;2.8413546196e+000;2.9920787857e+000;3.1653181209e+000;2.8236789734e+000;2.6744562648e+000;2.7871717177e+000;2.8405848250e+000;2.6772723029e+000;2.6888943782e+000;2.7225231426e+000;3.1469078950e+000;3.1013725997e+000;3.1737841233e+000;2.8500826760e+000;2.7956864855e+000;3.0914045604e+000;2.9103840765e+000;2.7248354904e+000;2.8181167377e+000;3.0369900770e+000;2.9701559943e+000;2.7290469040e+000;2.9307159484e+000;3.0860541294e+000;3.1482443672e+000;2.8149938247e+000;2.8737331312e+000;2.7402972955e+000;
6.7734375000e+000;3.4724519730e+000;3.2073549264e+000;3.2378751441e+000;3.0601742293e+000;2.9418995609e+000;3.1099040588e+000;3.2628484322e+000;2.9151501320e+000;2.7190482734e+000;2.8767990161e+000;2.9012300992e+000;2.6964195445e+000;2.6348944492e+000;2.7262362225e+000;3.1628564936e+000;3.1060736663e+000;3.1528769633e+000;2.8239254765e+000;2.7900539519e+000;3.1210699907e+000;2.9823407334e+000;2.7514225487e+000;2.8952918154e+000;3.1690761008e+000;3.0900548044e+000;2.8330899065e+000;3.0293246329e+000;3.2601525533e+000;3.1525148891e+000;3.0790356357e+000;2.9762418474e+000;2.8219459012e+000;
6.8730468750e+000;3.4029051149e+000;3.1318316550e+000;3.2282937994e+000;2.9981017218e+000;2.8991677002e+000;3.0511214503e+000;3.2446317869e+000;2.8864961120e+000;2.6923558094e+000;2.8318612778e+000;2.8964513683e+000;2.7096550281e+000;2.5970406109e+000;2.7439158516e+000;3.1884859060e+000;3.1223523775e+000;3.1669594345e+000;2.7763434935e+000;2.7479571137e+000;3.1149249698e+000;2.9280816221e+000;2.7184656978e+000;2.8436861447e+000;3.1109757107e+000;2.9686567209e+000;2.7424693497e+000;2.8907803029e+000;3.0378257930e+000;3.0650548201e+000;2.8329539952e+000;2.9016569432e+000;2.7772772393e+000;
6.9726562500e+000;3.1955567240e+000;2.8894244143e+000;3.0200362710e+000;2.7893860914e+000;2.6956899920e+000;2.9050736456e+000;3.0798443975e+000;2.7484176810e+000;2.5841679906e+000;2.6638072061e+000;2.7520271463e+000;2.6380175349e+000;2.5324871250e+000;2.7053605053e+000;3.1592367764e+000;3.0907677999e+000;3.0936188888e+000;2.6851553584e+000;2.5869524758e+000;2.8892645966e+000;2.7365693412e+000;2.5844880069e+000;2.6465517300e+000;2.9319033385e+000;2.7518986651e+000;2.5547010654e+000;2.6681111890e+000;2.7979206519e+000;2.8199676670e+000;2.6993471557e+000;2.6482354102e+000;2.6367259280e+000;
7.0722656250e+000;3.2864062264e+000;2.8727708926e+000;3.0299252534e+000;2.8185926179e+000;2.7786615925e+000;2.9543131942e+000;3.0962391544e+000;2.8284954913e+000;2.6413515388e+000;2.7409379377e+000;2.8707208404e+000;2.7092545412e+000;2.5263178217e+000;2.7301499063e+000;3.1903306657e+000;3.0809267155e+000;3.0514353885e+000;2.6112143793e+000;2.5323711091e+000;2.8052786429e+000;2.6667140649e+000;2.5894328863e+000;2.6403614738e+000;2.8941857327e+000;2.7006976586e+000;2.5986427263e+000;2.6418306635e+000;2.7204396875e+000;2.8072779836e+000;2.6725531740e+000;2.6893531300e+000;2.7109168949e+000;
7.1718750000e+000;3.3662265462e+000;2.7421218927e+000;3.0503465476e+000;2.7806623366e+000;2.7345245914e+000;2.9615859268e+000;3.3090305516e+000;2.8154240610e+000;2.6325914190e+000;2.7638220441e+000;2.9394906077e+000;2.7290415396e+000;2.5508114538e+000;2.7702564576e+000;3.1997495576e+000;3.1726648234e+000;3.1933850283e+000;2.6935939161e+000;2.5866589256e+000;2.8323127229e+000;2.7183459283e+000;2.5945418550e+000;2.6509068552e+000;2.9168122778e+000;2.7019224696e+000;2.5370169228e+000;2.5549830206e+000;2.7319003322e+000;2.6872854302e+000;2.7141980350e+000;2.5942523680e+000;2.6773479347e+000;
7.2714843750e+000;3.7917128542e+000;2.8765638706e+000;3.2765428672e+000;2.9489309272e+000;2.9148786308e+000;3.2041567788e+000;3.3960783203e+000;3.0009241360e+000;2.7593489038e+000;2.9461004209e+000;3.1134417733e+000;2.8958356794e+000;2.6373258038e+000;2.9242655662e+000;3.3682588235e+000;3.3512334244e+000;3.4033783854e+000;2.8283107284e+000;2.7375634277e+000;3.0629723146e+000;2.9204025940e+000;2.7425268001e+000;2.8472063571e+000;3.1220206439e+000;2.9788763074e+000;2.7329921235e+000;2.7742645905e+000;3.0323154740e+000;2.8446887010e+000;3.1381860903e+000;2.7651948232e+000;2.8096182044e+000;
7.3710937500e+000;2.9816520871e+000;3.6479426576e+000;3.3627073297e+000;3.3044390864e+000;3.1322070054e+000;3.3043349375e+000;3.2997851009e+000;3.1336759497e+000;2.9145620283e+000;3.0483892968e+000;3.1448816340e+000;2.9924952390e+000;2.7646004353e+000;3.0203472858e+000;3.3689830073e+000;3.2594048316e+000;3.1823434730e+000;2.7974756048e+000;2.8099527036e+000;3.0668469665e+000;2.9929213794e+000;2.8899952891e+000;2.9875569537e+000;3.1810606531e+000;3.0452424256e+000;2.9908572574e+000;3.0612654059e+000;3.0816235818e+000;3.2693923486e+000;3.1991189981e+000;3.1764777059e+000;2.9850715958e+000;
7.4707031250e+000;3.0821048586e+000;2.5954582716e+000;2.8413825685e+000;2.6129695130e+000;2.5319229341e+000;2.7920463224e+000;2.7549906047e+000;2.5620405652e+000;2.3854066392e+000;2.4375504534e+000;2.4787061379e+000;2.3927165546e+000;2.4150141419e+000;2.4207328804e+000;2.7887716107e+000;2.6235350816e+000;2.6010635563e+000;2.3819527424e+000;2.3226225956e+000;2.5748045904e+000;2.4665047197e+000;2.3621933105e+000;2.4163907437e+000;2.7077997835e+000;2.5829032459e+000;2.3854416960e+000;2.4281381969e+000;2.6148619527e+000;2.5909210649e+000;2.3218639165e+000;2.5138899695e+000;2.4664986017e+000;
7.5703125000e+000;2.8838070979e+000;2.7799388118e+000;2.7680332138e+000;2.6653631024e+000;2.5921603006e+000;2.7753347408e+000;2.9505786749e+000;2.6318033187e+000;2.5122946101e+000;2.5528643463e+000;2.6359584874e+000;2.6164385163e+000;2.4977719682e+000;2.7047326748e+000;3.1719305814e+000;2.9660287977e+000;2.8418800010e+000;2.5612098068e+000;2.4769226823e+000;2.7293960084e+000;2.5320658731e+000;2.4959120660e+000;2.5032205013e+000;2.6218299569e+000;2.6063348639e+000;2.4526783211e+000;2.4984141996e+000;2.4858160773e+000;2.6809257910e+000;2.2689902361e+000;2.5970594063e+000;2.5678499148e+000;
7.6699218750e+000;2.7806191076e+000;3.1242707323e+000;2.8533765150e+000;2.8523989383e+000;2.7620986301e+000;2.9189287232e+000;3.1433833933e+000;2.8161226693e+000;2.7121657532e+000;2.7792539885e+000;2.9177257362e+000;2.8379323770e+000;2.6432090613e+000;2.8920954962e+000;3.3253554431e+000;3.1084164137e+000;2.9662833548e+000;2.6673223590e+000;2.6063181703e+000;2.8250792347e+000;2.7048057279e+000;2.6357135627e+000;2.6552581916e+000;2.7700728843e+000;2.7948702807e+000;2.6484166403e+000;2.6943483055e+000;2.7358660653e+000;2.9523779539e+000;2.7730046653e+000;2.8188699449e+000;2.7429508335e+000;
7.7695312500e+000;3.0315176391e+000;2.8651520222e+000;2.9763315172e+000;2.8488997685e+000;2.7712049645e+000;3.0499537964e+000;2.8576593352e+000;2.8808013779e+000;2.7794060897e+000;2.7389725828e+000;2.8820668273e+000;2.8785213703e+000;2.7914183609e+000;2.9394943789e+000;3.3288856762e+000;3.1685040485e+000;3.1195980137e+000;2.7798592580e+000;2.7068224408e+000;2.7996291538e+000;2.7374391224e+000;2.7473698351e+000;2.7426555439e+000;2.8421229535e+000;2.7859301141e+000;2.6930622460e+000;2.6529189211e+000;2.7341497140e+000;2.7864775618e+000;2.7619276942e+000;2.7505528307e+000;2.7883748000e+000;
7.8691406250e+000;2.8086783957e+000;2.9363194351e+000;3.0048031198e+000;2.9292956559e+000;2.7879480175e+000;2.9414969279e+000;3.0831350953e+000;2.7701425010e+000;2.6558626240e+000;2.6854501856e+000;2.7575635775e+000;2.5988954661e+000;2.3932345625e+000;2.4844114305e+000;2.9655205235e+000;2.7699756054e+000;2.7476318035e+000;2.3850154658e+000;2.4099201953e+000;2.7806115223e+000;2.6316698183e+000;2.5457208161e+000;2.6661961393e+000;2.8572688309e+000;2.7780314068e+000;2.6579340537e+000;2.6543636304e+000;2.7499368636e+000;2.6942485825e+000;2.8493916441e+000;2.7656345325e+000;2.7211510035e+000;
7.9687500000e+000;3.2757393206e+000;3.1683135866e+000;3.2045515578e+000;3.1785606645e+000;3.1014464351e+000;3.2033337026e+000;3.2798070684e+000;3.0642754873e+000;3.0260008004e+000;2.9390696707e+000;2.9834559870e+000;2.9438340439e+000;2.9572874237e+000;2.8851060841e+000;3.2170392599e+000;2.9627471808e+000;2.9807112000e+000;2.8737071625e+000;2.9273454455e+000;2.9762431911e+000;2.9653332720e+000;3.0371383314e+000;3.0378543399e+000;3.0926969831e+000;3.1204412080e+000;3.0281869611e+000;3.0160659397e+000;3.0819730486e+000;3.0359372225e+000;3.2463348759e+000;3.0974531954e+000;3.0876586730e+000;
8.0683593750e+000;3.1628834535e+000;3.1272465862e+000;3.1708945306e+000;3.1335286637e+000;3.1253369001e+000;3.1595731621e+000;3.3837547077e+000;3.1215156463e+000;3.0881284667e+000;3.0958973007e+000;3.1819539226e+000;3.1271361319e+000;3.1101120499e+000;3.0854983112e+000;3.4032842739e+000;3.2400033108e+000;3.1290716309e+000;3.0598130764e+000;3.0371784413e+000;3.1279225613e+000;3.0290720758e+000;3.0689460735e+000;3.0550773540e+000;3.1533605993e+000;3.0598546707e+000;3.0274916874e+000;3.0652112222e+000;3.0233437007e+000;3.1360743454e+000;2.8616011534e+000;3.0875219247e+000;3.1501759124e+000;
8.1679687500e+000;3.2651471553e+000;3.2664204213e+000;3.2734831162e+000;3.1731358643e+000;3.0836915979e+000;3.2429473949e+000;3.0444387565e+000;3.0862923052e+000;2.9004757025e+000;2.9939183540e+000;3.1251442750e+000;2.9564789098e+000;2.6908840651e+000;2.8637327130e+000;3.3515732310e+000;3.1394331407e+000;3.0266868669e+000;2.6779422696e+000;2.7340562871e+000;2.9633827033e+000;2.9214469459e+000;2.8260163235e+000;2.9642016580e+000;2.8948557257e+000;3.0874290637e+000;2.9725246177e+000;3.0805006112e+000;3.0827559056e+000;3.2341590982e+000;3.0120697605e+000;3.1397438023e+000;3.0134272822e+000;
8.2675781250e+000;3.2504785674e+000;2.9777248929e+000;3.1412081642e+000;2.9927225438e+000;2.9163784831e+000;3.0424575350e+000;3.3311395385e+000;2.9425576057e+000;2.8227008844e+000;2.9910490933e+000;3.0585070689e+000;2.8879419864e+000;2.6529898270e+000;2.8337570622e+000;3.2946155153e+000;3.0728613874e+000;2.8514499478e+000;2.6265911407e+000;2.6520171388e+000;2.8318179738e+000;2.8522046362e+000;2.7148273935e+000;2.8464175822e+000;3.0008416016e+000;2.9861992375e+000;2.8240974064e+000;2.8958343072e+000;3.0376047559e+000;2.9662782621e+000;3.0825012705e+000;2.9171237111e+000;2.8434032635e+000;
8.3671875000e+000;3.4370085252e+000;3.0104799765e+000;3.1886295308e+000;3.0698572277e+000;3.0419657492e+000;3.2374363833e+000;3.0593414708e+000;3.0928406392e+000;2.9385324259e+000;2.9833672421e+000;3.0575788450e+000;2.9275113998e+000;2.7675868886e+000;2.8390500773e+000;3.3263782222e+000;3.1280179444e+000;3.0189948278e+000;2.7377834832e+000;2.8087715696e+000;3.0220553497e+000;3.0412713169e+000;2.8592726165e+000;3.0242779232e+000;3.2235933848e+000;3.1365523708e+000;2.9458779129e+000;3.0189608357e+000;3.1626766898e+000;3.0271720217e+000;3.2596009087e+000;2.9870358590e+000;2.9910271605e+000;
8.4667968750e+000;3.3776969506e+000;3.1549292592e+000;3.2578022041e+000;3.1614320029e+000;3.1247849537e+000;3.2143870861e+000;3.1043152081e+000;3.0604875192e+000;2.9836849162e+000;2.9650344586e+000;2.9892743143e+000;2.8835725122e+000;2.8714568629e+000;2.7886999027e+000;3.1284027678e+000;2.9625204691e+000;2.9565330927e+000;2.7753494536e+000;2.8875068099e+000;2.9808702503e+000;3.0688620233e+000;2.9485097257e+000;3.1021490953e+000;3.0604371323e+000;3.2145456021e+000;3.0703397705e+000;3.1121264206e+000;3.2064079407e+000;3.1780381371e+000;3.1216653084e+000;3.1144295537e+000;3.0508614119e+000;
8.5664062500e+000;3.3554209806e+000;3.2500523397e+000;3.2612516126e+000;3.2034458864e+000;3.1282679817e+000;3.1413271926e+000;3.1913690525e+000;3.0120052094e+000;2.9792305596e+000;2.9602646861e+000;2.9983999800e+000;2.9151833745e+000;2.9350525494e+000;2.8002091033e+000;3.1916997933e+000;3.0322813396e+000;3.1159195901e+000;2.8814473185e+000;2.9714082841e+000;3.0746886921e+000;3.1442768336e+000;3.0115230671e+000;3.1650934389e+000;3.1196067040e+000;3.2657067844e+000;3.1048276143e+000;3.1966134805e+000;3.2912360116e+000;3.2541975831e+000;3.1761480390e+000;3.1579211717e+000;3.0590970176e+000;
8.6660156250e+000;3.4055168307e+000;3.3180501368e+000;3.3385526859e+000;3.2582263144e+000;3.1704223186e+000;3.2051085531e+000;3.2964142771e+000;3.0543721305e+000;2.9797757811e+000;3.0328625416e+000;3.0368613681e+000;2.9622158492e+000;2.8977455688e+000;2.8133170689e+000;3.2544845051e+000;3.0891612535e+000;3.1706489128e+000;2.8484121432e+000;2.9306277284e+000;3.0670547035e+000;3.0979825266e+000;3.0096681399e+000;3.1755137063e+000;3.1860411820e+000;3.3044966149e+000;3.1547850458e+000;3.2484449524e+000;3.3112742506e+000;3.2864199815e+000;3.3697499487e+000;3.1979531505e+000;3.0944313725e+000;
8.7656250000e+000;3.4294547176e+000;3.3598045070e+000;3.3004398756e+000;3.2415006830e+000;3.1349406871e+000;3.1899250128e+000;3.2909580714e+000;3.0351584171e+000;2.9153900052e+000;3.0431930951e+000;3.0357975741e+000;2.9364006373e+000;2.7938722769e+000;2.7749917543e+000;3.2255612302e+000;3.0321565077e+000;3.0920758463e+000;2.7398133931e+000;2.8240470257e+000;2.9605022249e+000;3.0431022540e+000;2.9196947337e+000;3.1294277939e+000;3.0279466697e+000;3.3168982305e+000;3.1405098720e+000;3.2584882059e+000;3.3022001806e+000;3.3204918345e+000;3.3658367591e+000;3.2053213754e+000;3.0287370993e+000;
8.8652343750e+000;3.4017643522e+000;3.3394917278e+000;3.2528593216e+000;3.2130855506e+000;3.1177581871e+000;3.1695291918e+000;3.3556976687e+000;3.0373429622e+000;2.8663443956e+000;3.0359356384e+000;3.0492378452e+000;2.8814503810e+000;2.6460827641e+000;2.7141024432e+000;3.1848875560e+000;2.9808588967e+000;3.0412424075e+000;2.5826542139e+000;2.6727913218e+000;2.9297903048e+000;2.9701108530e+000;2.8096168471e+000;3.0669106924e+000;2.9680955447e+000;3.2536542618e+000;3.0890794619e+000;3.1956855916e+000;3.2410491083e+000;3.2403291152e+000;3.3740090397e+000;3.1851940894e+000;2.9834428367e+000;
8.9648437500e+000;3.4350288291e+000;3.4875299850e+000;3.3905317564e+000;3.3880750572e+000;3.2822979123e+000;3.3488826000e+000;3.3354828411e+000;3.2006787872e+000;2.9896600734e+000;3.1597331974e+000;3.1502763081e+000;2.9487842671e+000;2.7701094021e+000;2.7499454611e+000;3.1767366859e+000;2.9798978208e+000;3.0859817089e+000;2.7151235635e+000;2.8053521871e+000;3.0107622036e+000;3.0660597127e+000;2.9345616136e+000;3.1448383725e+000;3.1255792368e+000;3.3239422590e+000;3.2036237281e+000;3.2878342609e+000;3.3401072946e+000;3.3356405259e+000;3.4486210633e+000;3.3121683686e+000;3.1180507773e+000;
9.0644531250e+000;3.7870706955e+000;3.7130782744e+000;3.6530373717e+000;3.6578774301e+000;3.5595294782e+000;3.6253820405e+000;3.5753039779e+000;3.4861619466e+000;3.2731691427e+000;3.4553690803e+000;3.4671906800e+000;3.2433813764e+000;3.0209237965e+000;3.0722293562e+000;3.5184561627e+000;3.2960713126e+000;3.3161593666e+000;2.9754909962e+000;3.0998566746e+000;3.3231744994e+000;3.3480919248e+000;3.2179363216e+000;3.4161706386e+000;3.3975377848e+000;3.5568078767e+000;3.4863922129e+000;3.5833080751e+000;3.5282399062e+000;3.6639934154e+000;3.6325685096e+000;3.6112302502e+000;3.4044124737e+000;
9.1640625000e+000;3.5231218239e+000;3.4999298619e+000;3.4101281625e+000;3.4119323531e+000;3.3160093021e+000;3.3869930400e+000;3.4501832757e+000;3.2627496750e+000;3.0506512262e+000;3.2438544602e+000;3.2797952545e+000;3.0256660080e+000;2.7966456602e+000;2.8553523139e+000;3.2680538217e+000;3.0664029372e+000;3.2397831583e+000;2.8017669034e+000;2.8623668790e+000;3.1243779823e+000;3.1400413022e+000;2.9671743936e+000;3.2217884094e+000;3.2166253050e+000;3.3735675324e+000;3.2781837334e+000;3.3526199896e+000;3.3940245656e+000;3.4059115150e+000;3.5115748416e+000;3.3816605036e+000;3.1571274002e+000;
9.2636718750e+000;3.5714788426e+000;3.5258989763e+000;3.4504899895e+000;3.4334864792e+000;3.3248394439e+000;3.4056957573e+000;3.5124615016e+000;3.3007622110e+000;3.1309845620e+000;3.2926421579e+000;3.3212329123e+000;3.1092259092e+000;2.9611721853e+000;2.9858842354e+000;3.3460418353e+000;3.1351903242e+000;3.2544179837e+000;2.9175863049e+000;2.9573798485e+000;3.1660248120e+000;3.1727124135e+000;3.0501227682e+000;3.2475715618e+000;3.2603004838e+000;3.3896052214e+000;3.2734184319e+000;3.3564759349e+000;3.4161202972e+000;3.4374418346e+000;3.4954780022e+000;3.3732016259e+000;3.1846580230e+000;
9.3632812500e+000;3.6656089784e+000;3.7371230642e+000;3.5870889555e+000;3.6044559178e+000;3.4595585381e+000;3.5215599684e+000;3.7736100523e+000;3.4167525716e+000;3.2058335171e+000;3.4350330870e+000;3.4644702895e+000;3.1770152595e+000;2.8202374544e+000;2.9831713983e+000;3.3697316054e+000;3.1610827321e+000;3.2263121970e+000;2.7756107938e+000;2.9421091131e+000;3.2803780922e+000;3.3248086675e+000;3.1132691564e+000;3.3976355786e+000;3.4301296558e+000;3.5674530809e+000;3.4268350327e+000;3.5349300898e+000;3.5824701653e+000;3.6446602121e+000;3.5884128128e+000;3.5544516881e+000;3.3065569804e+000;
9.4628906250e+000;3.6196454254e+000;3.5530561315e+000;3.4801358557e+000;3.4667989849e+000;3.3283363428e+000;3.4120863604e+000;3.6245156170e+000;3.3181849921e+000;3.1101181063e+000;3.3297924617e+000;3.3517306477e+000;3.0960564702e+000;2.7881827737e+000;2.9115702603e+000;3.3280402913e+000;3.1093784878e+000;3.2189956234e+000;2.7634011165e+000;2.8672633979e+000;3.1639656623e+000;3.1737982184e+000;3.0088126553e+000;3.2710635226e+000;3.2635926780e+000;3.4305401923e+000;3.3026226567e+000;3.3902936677e+000;3.4424114113e+000;3.4893829165e+000;3.5463913191e+000;3.4145371623e+000;3.1903123877e+000;
9.5625000000e+000;3.6801334574e+000;3.5403974346e+000;3.5099081963e+000;3.4785286275e+000;3.3389155247e+000;3.4550804145e+000;3.5937930354e+000;3.3640266701e+000;3.1608109759e+000;3.3627843123e+000;3.3497261354e+000;3.1383868190e+000;2.8162127585e+000;2.9495335999e+000;3.3390849022e+000;3.1496623281e+000;3.2773511596e+000;2.8451073864e+000;2.9747552154e+000;3.2818475674e+000;3.2893408811e+000;3.0952073035e+000;3.3792785687e+000;3.3028792355e+000;3.5271534252e+000;3.3429024994e+000;3.4383385752e+000;3.5463115950e+000;3.5037864027e+000;3.6159211161e+000;3.4150919182e+000;3.2240526230e+000;
9.6621093750e+000;3.6295492571e+000;3.5337215151e+000;3.4721496820e+000;3.4407070734e+000;3.3114822014e+000;3.4116675034e+000;3.5681346418e+000;3.3135549560e+000;3.1132244390e+000;3.3181673226e+000;3.3158599099e+000;3.0928574890e+000;2.8060627528e+000;2.9053601264e+000;3.3241584678e+000;3.1315309749e+000;3.2721753002e+000;2.8124250595e+000;2.9117879677e+000;3.2222865784e+000;3.2324575813e+000;3.0370830181e+000;3.3115711727e+000;3.3123235625e+000;3.4693476132e+000;3.3240882514e+000;3.4162627407e+000;3.4885035909e+000;3.5087089616e+000;3.5850122991e+000;3.4025738017e+000;3.1946015092e+000;
9.7617187500e+000;3.6469349745e+000;3.5198637053e+000;3.4668186735e+000;3.4366634243e+000;3.2916866371e+000;3.3874972026e+000;3.6082805649e+000;3.2818013791e+000;3.0772371697e+000;3.3144327787e+000;3.3246125198e+000;3.0802130892e+000;2.7884708254e+000;2.9080076009e+000;3.3429747623e+000;3.1586616249e+000;3.2871672872e+000;2.7723393855e+000;2.8727242046e+000;3.2128773975e+000;3.2086340187e+000;3.0004540332e+000;3.2953738538e+000;3.3133908311e+000;3.4520407404e+000;3.3351573599e+000;3.4367880216e+000;3.5004990695e+000;3.5159231273e+000;3.6016399672e+000;3.4130550676e+000;3.1597981705e+000;
9.8613281250e+000;3.7290782372e+000;3.5470395312e+000;3.5305018514e+000;3.4548463093e+000;3.2895012853e+000;3.4356747917e+000;3.6432883850e+000;3.2963985273e+000;3.0825803086e+000;3.3560218972e+000;3.3686497079e+000;3.0982265705e+000;2.8176801364e+000;2.9364653715e+000;3.4248295528e+000;3.2711459564e+000;3.3837457852e+000;2.8039186131e+000;2.8759014935e+000;3.2352129335e+000;3.2241992588e+000;2.9924367883e+000;3.2817808588e+000;3.5029477960e+000;3.4515243437e+000;3.3007939937e+000;3.4198036389e+000;3.5549542647e+000;3.5166987124e+000;3.6703799329e+000;3.4194590955e+000;3.1543493682e+000;
9.9609375000e+000;3.6811391085e+000;3.5871947648e+000;3.5091280665e+000;3.4921869198e+000;3.3457091763e+000;3.4398418962e+000;3.6762094094e+000;3.3296064141e+000;3.1170734108e+000;3.3770172990e+000;3.3839111066e+000;3.1352081345e+000;2.8375438881e+000;2.9640246373e+000;3.4100363103e+000;3.2207547494e+000;3.3685643187e+000;2.8451284717e+000;2.9204982597e+000;3.2662097327e+000;3.2213476824e+000;3.0294439170e+000;3.3127788491e+000;3.2879140403e+000;3.4704552874e+000;3.3476604107e+000;3.4601726221e+000;3.5021344673e+000;3.5212053194e+000;3.6030296826e+000;3.4684612296e+000;3.1958483818e+000;
1.0060546875e+001;3.7818352823e+000;3.5821655227e+000;3.6034198630e+000;3.5228243560e+000;3.4058169376e+000;3.4986356956e+000;3.7115783297e+000;3.3942037435e+000;3.1877649337e+000;3.4406945569e+000;3.4783010864e+000;3.1975637371e+000;2.8935512392e+000;3.0187820672e+000;3.4388298009e+000;3.2612060987e+000;3.4279930654e+000;2.9127447580e+000;3.0011879582e+000;3.3585086454e+000;3.3072651953e+000;3.1064528831e+000;3.3669710900e+000;3.4758487168e+000;3.5087496175e+000;3.4109938518e+000;3.4793081107e+000;3.5789380846e+000;3.5558548609e+000;3.7490921975e+000;3.5165263157e+000;3.2833816495e+000;
1.0160156250e+001;3.7087205820e+000;3.5533988193e+000;3.4894802420e+000;3.4793747429e+000;3.3361920840e+000;3.4262829553e+000;3.5907594693e+000;3.3149174585e+000;3.1309736278e+000;3.3242218172e+000;3.3208309522e+000;3.1081395673e+000;2.8611621807e+000;2.9502531338e+000;3.3753858356e+000;3.2306263868e+000;3.4201050724e+000;2.8959318114e+000;2.9535135600e+000;3.2587706693e+000;3.2045692059e+000;3.0643034374e+000;3.3126004844e+000;3.2682926142e+000;3.4586835385e+000;3.3654213648e+000;3.4419495848e+000;3.4776802041e+000;3.5296195593e+000;3.5954993710e+000;3.4582795802e+000;3.2261030499e+000;
1.0259765625e+001;3.7826161203e+000;3.6409729772e+000;3.6219790622e+000;3.6039096108e+000;3.4945004243e+000;3.5446412181e+000;3.6477739017e+000;3.4715086792e+000;3.3239371024e+000;3.4506371962e+000;3.4482828590e+000;3.2645003087e+000;3.0492049368e+000;3.1058086821e+000;3.4725232618e+000;3.3694309748e+000;3.5851312226e+000;3.0914679212e+000;3.1621806988e+000;3.4307086185e+000;3.4055919087e+000;3.2762452812e+000;3.4710061380e+000;3.4347729086e+000;3.5836178328e+000;3.5219329974e+000;3.5880824924e+000;3.5792084154e+000;3.6404836028e+000;3.6913366734e+000;3.5728706724e+000;3.4277019347e+000;
1.0359375000e+001;3.7250934464e+000;3.7583958965e+000;3.6307130506e+000;3.6196144893e+000;3.5011244369e+000;3.5333144654e+000;3.7487724790e+000;3.4507761124e+000;3.3024654868e+000;3.4548144402e+000;3.4463654052e+000;3.2481951332e+000;3.0306660334e+000;3.0875352882e+000;3.4126982433e+000;3.3033901494e+000;3.4831038737e+000;3.0631728342e+000;3.1713331898e+000;3.4083035031e+000;3.4173706340e+000;3.2612551494e+000;3.4563301095e+000;3.6126207025e+000;3.5821764001e+000;3.5299143599e+000;3.6094874414e+000;3.6184563001e+000;3.6899745395e+000;3.7429640872e+000;3.6234660375e+000;3.4034498455e+000;
1.0458984375e+001;3.6908809053e+000;3.6187225623e+000;3.5608602613e+000;3.5294978201e+000;3.4124502821e+000;3.4723222187e+000;3.6978310837e+000;3.3735918950e+000;3.2147070307e+000;3.3835738847e+000;3.3463451599e+000;3.1459413095e+000;2.9456137715e+000;2.9830616651e+000;3.2812682123e+000;3.2099674391e+000;3.5117648050e+000;3.0199984738e+000;3.0871677164e+000;3.3815897792e+000;3.3424502439e+000;3.1854272882e+000;3.4238164512e+000;3.4112113520e+000;3.5968459251e+000;3.4795663641e+000;3.5616509097e+000;3.5877317331e+000;3.6054134387e+000;3.6919098831e+000;3.5282353904e+000;3.3313396007e+000;
1.0558593750e+001;3.6493484904e+000;3.5263348756e+000;3.4730578741e+000;3.4471709917e+000;3.3236518441e+000;3.4129445847e+000;3.5041105799e+000;3.2729062725e+000;3.0841777100e+000;3.2675903282e+000;3.2394056698e+000;2.9989230957e+000;2.7905846227e+000;2.8197745521e+000;3.1470254122e+000;3.0647326570e+000;3.3473344614e+000;2.8175579644e+000;2.9007013698e+000;3.1993840073e+000;3.1572242329e+000;3.0293576709e+000;3.2639984312e+000;3.2536045833e+000;3.4048105339e+000;3.3474949480e+000;3.4113962371e+000;3.4544523164e+000;3.4736941712e+000;3.5971333441e+000;3.4215695835e+000;3.2167623823e+000;
1.0658203125e+001;3.6794634580e+000;3.7322502041e+000;3.5875636310e+000;3.5806539048e+000;3.4968471981e+000;3.5222091841e+000;3.7338918881e+000;3.4164081695e+000;3.2451953572e+000;3.4233161255e+000;3.4041396576e+000;3.1272380607e+000;2.8887435712e+000;2.9480575431e+000;3.1666377348e+000;3.1360906438e+000;3.4260810850e+000;2.9076154860e+000;3.0504288032e+000;3.3561741101e+000;3.3188240160e+000;3.1911302489e+000;3.4333722975e+000;3.3760927823e+000;3.5573264324e+000;3.5176271542e+000;3.5713626874e+000;3.5792022222e+000;3.6384058536e+000;3.7148161123e+000;3.6139293334e+000;3.3868000369e+000;
1.0757812500e+001;3.7081280154e+000;3.5844453243e+000;3.5457885203e+000;3.5269256503e+000;3.4458011809e+000;3.5370116686e+000;3.5069020362e+000;3.3907418304e+000;3.2072484447e+000;3.3410624511e+000;3.2927284861e+000;3.0518604449e+000;2.9275565208e+000;2.8746130291e+000;3.0601670474e+000;3.0615330616e+000;3.4424589085e+000;2.9616697942e+000;3.0490818566e+000;3.2999389319e+000;3.2440993054e+000;3.1675060738e+000;3.3616896212e+000;3.2697973850e+000;3.4640430548e+000;3.4358926700e+000;3.4884783474e+000;3.4772498589e+000;3.5474834228e+000;3.6643550395e+000;3.5045289604e+000;3.3283409012e+000;
1.0857421875e+001;3.6783505916e+000;3.6316777372e+000;3.5738270476e+000;3.5482468201e+000;3.4574115904e+000;3.5301024339e+000;3.6224488731e+000;3.4158242733e+000;3.2409963338e+000;3.3974198639e+000;3.3586800972e+000;3.1338366279e+000;2.9755626971e+000;2.9694732754e+000;3.1386856612e+000;3.0925403680e+000;3.4352657393e+000;2.9767529214e+000;3.0662840907e+000;3.3173388925e+000;3.2869657494e+000;3.1913403349e+000;3.3786405210e+000;3.2909861441e+000;3.5182335978e+000;3.4692191939e+000;3.5140727752e+000;3.5157447195e+000;3.6082478745e+000;3.6994377522e+000;3.5387032860e+000;3.3489886111e+000;
1.0957031250e+001;3.6512572858e+000;3.5094365518e+000;3.4878489801e+000;3.4767449790e+000;3.3452795473e+000;3.4816820076e+000;3.4562508882e+000;3.3172337982e+000;3.1267143687e+000;3.2821250604e+000;3.2580370573e+000;3.0229952939e+000;2.8733932492e+000;2.8767823333e+000;3.0982278527e+000;3.0439882886e+000;3.3725550585e+000;2.8949451535e+000;2.9498897316e+000;3.1958778854e+000;3.1555669760e+000;3.0639786964e+000;3.2520828075e+000;3.1957554039e+000;3.3881312316e+000;3.3475067213e+000;3.3896344519e+000;3.4113711360e+000;3.4503954116e+000;3.6155457625e+000;3.4170367877e+000;3.2334242047e+000;
1.1056640625e+001;3.5255869279e+000;3.4177282858e+000;3.3962863722e+000;3.3728705701e+000;3.2399367917e+000;3.3520930368e+000;3.3801102618e+000;3.1904531532e+000;2.9972351207e+000;3.1518324467e+000;3.1155157183e+000;2.8720098688e+000;2.6903495798e+000;2.7088151840e+000;2.9969503779e+000;2.9377970400e+000;3.2966263352e+000;2.7694559718e+000;2.8053887814e+000;3.1074504657e+000;3.0357092047e+000;2.9310526559e+000;3.1270367394e+000;3.1276086861e+000;3.2795316832e+000;3.2477272755e+000;3.2953427857e+000;3.3044847017e+000;3.3541704812e+000;3.4813031203e+000;3.3209580400e+000;3.1175714684e+000;
1.1156250000e+001;3.5398706262e+000;3.4393057605e+000;3.4282485044e+000;3.3798443128e+000;3.2363653400e+000;3.3765033860e+000;3.3673689868e+000;3.2017962964e+000;3.0350971700e+000;3.1857470993e+000;3.1686721414e+000;2.9430045709e+000;2.8171949965e+000;2.7798831622e+000;3.0661058055e+000;2.9887478428e+000;3.3111505862e+000;2.8443349847e+000;2.8918373849e+000;3.1501293149e+000;3.0638837295e+000;2.9655220560e+000;3.1127240770e+000;3.1650702005e+000;3.2737235963e+000;3.2438813911e+000;3.2961467797e+000;3.3366916627e+000;3.3426522701e+000;3.4706322107e+000;3.2811193955e+000;3.1066007534e+000;
1.1255859375e+001;3.4877746907e+000;3.3185686476e+000;3.3355174075e+000;3.2799719848e+000;3.1284081451e+000;3.2961381648e+000;3.3321217705e+000;3.1114178453e+000;2.8921035307e+000;3.0866263381e+000;3.0749730456e+000;2.7795195129e+000;2.5802270208e+000;2.5828674970e+000;2.8797204642e+000;2.8749670413e+000;3.2780710294e+000;2.6680458446e+000;2.7283715482e+000;3.1107458868e+000;2.9726352853e+000;2.8136282518e+000;3.0207967426e+000;3.0966150980e+000;3.2041482460e+000;3.1368228711e+000;3.1885005184e+000;3.2422030302e+000;3.2397910660e+000;3.4193156373e+000;3.1952328429e+000;2.9940826597e+000;
1.1355468750e+001;3.4848012572e+000;3.3794778820e+000;3.3519589870e+000;3.3326158633e+000;3.1958623836e+000;3.3667430139e+000;3.3571104387e+000;3.2122400800e+000;2.9649452238e+000;3.1658271961e+000;3.1519573322e+000;2.8421623540e+000;2.7018957783e+000;2.6961454616e+000;2.8311385155e+000;2.8771407167e+000;3.2735385826e+000;2.7266299395e+000;2.8139843513e+000;3.1847463862e+000;3.0393218779e+000;2.8975847821e+000;3.0762451359e+000;3.1569293767e+000;3.2135013313e+000;3.1832959942e+000;3.2441593326e+000;3.2351701860e+000;3.3511446038e+000;3.4106662028e+000;3.2651860220e+000;3.0701467353e+000;
1.1455078125e+001;3.4163040318e+000;3.3078833570e+000;3.3369403603e+000;3.2800835910e+000;3.1534499255e+000;3.3288073497e+000;3.3813701225e+000;3.1698526105e+000;2.9478117406e+000;3.1202657894e+000;3.1307853756e+000;2.8135587984e+000;2.7383126113e+000;2.6359771530e+000;2.7396523553e+000;2.8124301777e+000;3.2676988754e+000;2.7278738283e+000;2.7841711779e+000;3.1233078513e+000;2.9621724638e+000;2.8649958669e+000;3.0270696344e+000;3.1071365147e+000;3.1000978375e+000;3.1168793929e+000;3.1381040337e+000;3.1273525806e+000;3.2048274015e+000;3.3111675767e+000;3.1956137362e+000;3.0399046899e+000;
1.1554687500e+001;3.3252298363e+000;3.1966961289e+000;3.1275679967e+000;3.1349780272e+000;3.0300450347e+000;3.1128567604e+000;3.1642282461e+000;2.9841033165e+000;2.8539235329e+000;2.9167465995e+000;2.9171796057e+000;2.6932516942e+000;2.6138698592e+000;2.6412345200e+000;2.7865497503e+000;2.7976794363e+000;3.1841473312e+000;2.6322674977e+000;2.6718661925e+000;2.9668088214e+000;2.8227031505e+000;2.7776914194e+000;2.9168137238e+000;2.9610563619e+000;2.9780784476e+000;3.0230247035e+000;3.0301304530e+000;3.0383564210e+000;3.1205328830e+000;3.1049200556e+000;3.1109633905e+000;2.9691957594e+000;
1.1654296875e+001;3.1272705789e+000;2.9265284501e+000;3.0112146721e+000;2.9086071994e+000;2.7010321509e+000;2.9383468248e+000;3.0361795183e+000;2.7032191644e+000;2.4933935194e+000;2.6991195286e+000;2.7494321914e+000;2.3393901816e+000;2.1435771540e+000;2.1147466091e+000;2.4403929339e+000;2.5029831021e+000;3.0300884899e+000;2.3212755408e+000;2.3318099551e+000;2.8185216542e+000;2.5875221797e+000;2.3919640409e+000;2.6182105370e+000;2.7850065956e+000;2.7894805969e+000;2.7277657832e+000;2.7894978071e+000;2.9092471644e+000;2.8750005381e+000;2.9404927581e+000;2.8364706617e+000;2.5860214310e+000;
1.1753906250e+001;3.1008571286e+000;3.0646923653e+000;3.0845480306e+000;3.0072070157e+000;2.7841279004e+000;2.9755735993e+000;3.2050909033e+000;2.7560521386e+000;2.4889095568e+000;2.7823179873e+000;2.7862030162e+000;2.3936252828e+000;2.0270834218e+000;2.1571970085e+000;2.5679417135e+000;2.5789337834e+000;3.0706815655e+000;2.2957617262e+000;2.3078598039e+000;2.8482195856e+000;2.6018716195e+000;2.3686408529e+000;2.6545494579e+000;2.6943877357e+000;2.8129953164e+000;2.7925218471e+000;2.8514178787e+000;2.8768592335e+000;2.9879063751e+000;2.9239488880e+000;2.9551366716e+000;2.6210883247e+000;
1.1853515625e+001;3.0249677300e+000;2.8274974515e+000;2.8884671899e+000;2.8007319287e+000;2.6350235015e+000;2.7344949529e+000;2.9094443225e+000;2.5301838962e+000;2.4473478540e+000;2.5294920327e+000;2.5227283143e+000;2.2830391235e+000;2.2651502277e+000;2.1631845779e+000;2.6252458242e+000;2.6673165648e+000;3.1322499491e+000;2.4030628601e+000;2.4141785093e+000;2.7962737068e+000;2.5578082539e+000;2.4507259939e+000;2.6161876694e+000;2.6458415081e+000;2.7511510272e+000;2.6860911636e+000;2.7551329700e+000;2.7921942394e+000;2.8251097840e+000;2.8454875108e+000;2.7470979155e+000;2.5810693505e+000;
1.1953125000e+001;2.8334269844e+000;2.7176956296e+000;2.7345659143e+000;2.6603413895e+000;2.4619776831e+000;2.6142975207e+000;2.6822461328e+000;2.3864926993e+000;2.2523374629e+000;2.3309111894e+000;2.3613714802e+000;2.1278980281e+000;2.1572613396e+000;2.0564908867e+000;2.6624603314e+000;2.6899792998e+000;3.1234587227e+000;2.3966224093e+000;2.3490883924e+000;2.6998335152e+000;2.4626432482e+000;2.3580541528e+000;2.5663520192e+000;2.5002121102e+000;2.6957381120e+000;2.5770844433e+000;2.6498080144e+000;2.6595568780e+000;2.6890423209e+000;2.7369445637e+000;2.6287937491e+000;2.4499468550e+000;
1.2052734375e+001;2.9832196223e+000;2.8288998188e+000;2.6580406108e+000;2.8030040798e+000;2.6873139228e+000;2.6244592813e+000;2.7733672530e+000;2.5511285494e+000;2.5183515243e+000;2.4559909347e+000;2.4214259415e+000;2.4028875785e+000;2.7530821890e+000;2.3382953835e+000;2.5866269687e+000;2.8224392786e+000;3.2784785719e+000;2.8950323792e+000;2.7896836935e+000;2.8581781752e+000;2.7031726937e+000;2.6900405835e+000;2.7118812358e+000;2.7234512401e+000;2.6733375187e+000;2.7972188694e+000;2.7664322516e+000;2.5983623665e+000;2.8181632255e+000;2.8322632432e+000;2.7557365632e+000;2.7112533269e+000;
1.2152343750e+001;2.5612451709e+000;2.4076450242e+000;2.6006282485e+000;2.3663499522e+000;2.3272496838e+000;2.5176679598e+000;2.3053971289e+000;2.2307173413e+000;2.0955432092e+000;2.2236283376e+000;2.3618044147e+000;2.0723179294e+000;1.8339855653e+000;2.0726634333e+000;2.7988327453e+000;2.7949594858e+000;3.1909423844e+000;2.3815855518e+000;2.1905732538e+000;2.7372125036e+000;2.4028309985e+000;2.1465178337e+000;2.4588800260e+000;2.4539329481e+000;2.6082544101e+000;2.4378606584e+000;2.4925317768e+000;2.5371799593e+000;2.3163122004e+000;2.8045961008e+000;2.4106382850e+000;2.2823498637e+000;
1.2251953125e+001;2.6264804350e+000;2.6304663217e+000;2.7226775226e+000;2.5979408897e+000;2.4675177938e+000;2.6436914431e+000;2.6362347766e+000;2.3324344823e+000;2.1842838161e+000;2.3670919296e+000;2.4321040538e+000;2.1488035202e+000;1.8896241099e+000;2.1075312066e+000;2.7630713296e+000;2.8742034982e+000;3.2409691060e+000;2.4461264501e+000;2.2925981222e+000;2.8076083191e+000;2.5369261393e+000;2.2592854927e+000;2.5537737273e+000;2.6721835657e+000;2.6789619387e+000;2.5676906103e+000;2.6292761247e+000;2.6442440139e+000;2.5011488872e+000;2.7688755963e+000;2.5725568036e+000;2.4245964459e+000;
1.2351562500e+001;2.8429768571e+000;2.6558664275e+000;2.9065987042e+000;2.6771535397e+000;2.4789994525e+000;2.7788939437e+000;2.7530810481e+000;2.3692858441e+000;2.1680077963e+000;2.4084769117e+000;2.4351858743e+000;2.0797971018e+000;1.9080497680e+000;2.0314158876e+000;2.6701516430e+000;2.7283129586e+000;3.1144600414e+000;2.3789377246e+000;2.2551689607e+000;2.7717630763e+000;2.5226793969e+000;2.2407649335e+000;2.5460472231e+000;2.5847298389e+000;2.5782778118e+000;2.5552731840e+000;2.5979807299e+000;2.6804418954e+000;2.4591040177e+000;2.7650287802e+000;2.5251759102e+000;2.4038414234e+000;
1.2451171875e+001;3.1185244632e+000;3.0939673829e+000;3.1649364962e+000;3.0488415352e+000;2.7976779452e+000;3.0973407945e+000;3.0309049312e+000;2.7115900923e+000;2.3767518575e+000;2.7308443416e+000;2.7305638564e+000;2.3004963004e+000;2.0393814789e+000;2.1442708738e+000;2.6257781647e+000;2.6882071073e+000;3.0504066776e+000;2.3914774363e+000;2.3561326401e+000;2.8996820167e+000;2.7975868985e+000;2.3911783149e+000;2.8018285511e+000;2.8994279493e+000;2.9611575752e+000;2.8370680618e+000;2.9323762825e+000;3.0297676527e+000;2.8512138814e+000;3.3219553364e+000;2.9124328627e+000;2.6474191604e+000;
1.2550781250e+001;2.8764819298e+000;2.7978721601e+000;2.9258964678e+000;2.7905077360e+000;2.5649835290e+000;2.8589281950e+000;2.7778901101e+000;2.5087634227e+000;2.2678256018e+000;2.5086735135e+000;2.5188511359e+000;2.0896540004e+000;2.0269590771e+000;2.0807998397e+000;2.5488349496e+000;2.5949279373e+000;2.9944842885e+000;2.3615090050e+000;2.3427275822e+000;2.8026027176e+000;2.6215281189e+000;2.3508688834e+000;2.6483302800e+000;2.7298701251e+000;2.7299315812e+000;2.6168014259e+000;2.7211289997e+000;2.7085356340e+000;2.6610460368e+000;2.7294355414e+000;2.5847228684e+000;2.4669887098e+000;
1.2650390625e+001;2.9378160215e+000;2.7136787904e+000;2.8251364321e+000;2.6954232023e+000;2.4905702414e+000;2.7744652357e+000;2.7117442423e+000;2.4410159995e+000;2.1955683354e+000;2.4262562885e+000;2.4072243815e+000;2.0228413071e+000;2.1121383389e+000;1.9860126014e+000;2.5341306298e+000;2.5793182993e+000;2.9889352316e+000;2.3786606744e+000;2.3322051218e+000;2.8197610857e+000;2.5893884894e+000;2.3137726060e+000;2.6012321803e+000;2.6000346916e+000;2.6495609398e+000;2.5586264502e+000;2.6362962338e+000;2.6445530172e+000;2.4894269495e+000;2.8072116299e+000;2.5334792332e+000;2.4088088611e+000;
1.2750000000e+001;3.2412453849e+000;3.0142446925e+000;3.0851008493e+000;2.9882965015e+000;2.9063448140e+000;3.0398179295e+000;3.2393989019e+000;2.8603745990e+000;2.7459601480e+000;2.8638858331e+000;2.7846036867e+000;2.5785633626e+000;2.4773990870e+000;2.4504422745e+000;2.8029638044e+000;2.7632168443e+000;3.0377134884e+000;2.6611722494e+000;2.7586104042e+000;3.0724178416e+000;3.0281866248e+000;2.8176763433e+000;3.0781781551e+000;3.0489891881e+000;3.1265100261e+000;3.0122350294e+000;3.0158596474e+000;3.0953351999e+000;2.8396663269e+000;3.1984993297e+000;2.9046821361e+000;2.8958931907e+000;
1.2849609375e+001;2.8070406904e+000;2.6955818155e+000;2.8034509150e+000;2.6593363683e+000;2.4531449103e+000;2.7398154322e+000;2.6873101480e+000;2.4166512772e+000;2.2144494039e+000;2.4256078069e+000;2.3796373517e+000;2.0751081626e+000;1.9855046547e+000;2.0504502118e+000;2.5960020662e+000;2.5835836494e+000;2.8849067653e+000;2.3195390698e+000;2.2908348401e+000;2.7209457981e+000;2.5249320470e+000;2.2597730818e+000;2.5162727265e+000;2.5524878908e+000;2.6215927054e+000;2.5008291774e+000;2.6024138536e+000;2.5936978309e+000;2.5196280059e+000;2.7530278847e+000;2.4520455999e+000;2.3684516992e+000;
1.2949218750e+001;2.8765103417e+000;2.8412507992e+000;2.9105782910e+000;2.8381776189e+000;2.7290763611e+000;2.8364838252e+000;2.9957926337e+000;2.6719519764e+000;2.6288308443e+000;2.7247079228e+000;2.6084513601e+000;2.5315177115e+000;2.5489846175e+000;2.5064276321e+000;2.8012161293e+000;2.7820666611e+000;3.0598520788e+000;2.6889697683e+000;2.6711075970e+000;2.8768334081e+000;2.7831759527e+000;2.6727517237e+000;2.8143579569e+000;2.7376078805e+000;2.8907355504e+000;2.7137949527e+000;2.7786741623e+000;2.7890396646e+000;2.5934119804e+000;3.0116175761e+000;2.6314729393e+000;2.6948226203e+000;
1.3048828125e+001;2.7187860628e+000;3.1136641201e+000;2.9172211450e+000;2.9327353819e+000;2.7532289039e+000;2.8712954138e+000;2.8894544713e+000;2.6400657289e+000;2.4393177246e+000;2.5766689280e+000;2.4591074666e+000;2.3389034167e+000;2.4987566181e+000;2.2804988800e+000;2.6128810406e+000;2.6548241594e+000;3.0015627908e+000;2.6032232714e+000;2.6461377179e+000;2.8042116948e+000;2.7498113069e+000;2.6407821048e+000;2.7807680534e+000;2.8102940656e+000;2.8290967324e+000;2.7742536799e+000;2.8889331804e+000;2.7883498721e+000;2.9249358747e+000;2.8394475906e+000;2.8403127275e+000;2.6607457259e+000;
1.3148437500e+001;2.9952444777e+000;2.9121389186e+000;2.9284779952e+000;2.8300025188e+000;2.6181406887e+000;2.8516220851e+000;3.2122988904e+000;2.6371694455e+000;2.3907004091e+000;2.7053495142e+000;2.7106950041e+000;2.4437538465e+000;2.1825614189e+000;2.3952982196e+000;2.7828162695e+000;2.7800757266e+000;3.0301800594e+000;2.4417130068e+000;2.4375269245e+000;2.8102968483e+000;2.6847068255e+000;2.4358492709e+000;2.7331636803e+000;2.7511491434e+000;2.8265934461e+000;2.6373033486e+000;2.7884249185e+000;2.8248186450e+000;2.7462205984e+000;3.0585069475e+000;2.6859152999e+000;2.5213978236e+000;
1.3248046875e+001;3.1169582012e+000;3.2565241343e+000;3.1774980214e+000;3.1070112987e+000;2.9183818622e+000;3.1238478542e+000;3.2603555399e+000;2.9702628407e+000;2.7680682649e+000;2.9653774716e+000;2.9662449839e+000;2.8024012232e+000;2.6960092025e+000;2.8038420110e+000;3.0080514360e+000;2.9977273555e+000;3.1386540605e+000;2.8013765246e+000;2.7926732656e+000;3.0423854179e+000;3.0017096260e+000;2.7919303387e+000;3.0043128744e+000;3.1234730497e+000;3.1235978977e+000;2.9319248454e+000;3.0815076629e+000;3.1525737434e+000;3.0922995397e+000;3.2230927343e+000;2.9787908778e+000;2.8210038228e+000;
1.3347656250e+001;2.9624920500e+000;3.0452673282e+000;3.0093638503e+000;2.9512412910e+000;2.7253352123e+000;2.9529915635e+000;3.1201285420e+000;2.7633467418e+000;2.6140349423e+000;2.7839705991e+000;2.8121759265e+000;2.6450495594e+000;2.5371774927e+000;2.6489842789e+000;2.9354993588e+000;2.8898496591e+000;2.9832328453e+000;2.6912835051e+000;2.6413682970e+000;2.8375221445e+000;2.8084746119e+000;2.6160044095e+000;2.8573036636e+000;2.8779147040e+000;2.9064876521e+000;2.7172733548e+000;2.8386345192e+000;2.9135186430e+000;2.8323436360e+000;2.9229219366e+000;2.7275127375e+000;2.6463129642e+000;
1.3447265625e+001;3.2028833571e+000;3.0875603673e+000;3.1222501319e+000;3.0243552715e+000;2.9105357403e+000;3.0726920507e+000;3.2078151399e+000;2.9349501000e+000;2.8270532157e+000;2.9929124248e+000;3.0581684649e+000;2.9229759124e+000;2.6158558479e+000;2.9229396660e+000;3.1722849165e+000;3.0729564393e+000;3.0853899375e+000;2.8057553014e+000;2.7385793660e+000;2.9720176529e+000;2.9253215045e+000;2.6943415806e+000;2.9463378306e+000;3.0395141831e+000;3.0159846621e+000;2.8875779502e+000;3.0074692647e+000;3.1009968119e+000;2.9877287087e+000;3.1038473875e+000;2.8836150518e+000;2.8394284405e+000;
1.3546875000e+001;3.0984466266e+000;3.1126039357e+000;3.0952783393e+000;3.0281161425e+000;2.9225252941e+000;3.0676284514e+000;3.2910082221e+000;2.9221736166e+000;2.8579766341e+000;2.9855807112e+000;2.9769379574e+000;2.8896181373e+000;2.7004074361e+000;2.8702782926e+000;3.0818181913e+000;2.9634862767e+000;2.9918204812e+000;2.7939774893e+000;2.7664370798e+000;2.9023332083e+000;2.9576491313e+000;2.7871988756e+000;2.9860029584e+000;3.0919009352e+000;3.0100428212e+000;2.8569859740e+000;2.9549427084e+000;3.0601119857e+000;2.9466012223e+000;3.1127030969e+000;2.8373089556e+000;2.8874052324e+000;
1.3646484375e+001;3.2170067442e+000;3.2914212649e+000;3.1790140165e+000;3.1817460832e+000;3.0924560035e+000;3.2002245745e+000;3.3397628334e+000;3.1172229710e+000;3.0136600689e+000;3.1262003662e+000;3.1464731556e+000;3.0614941895e+000;2.8573908867e+000;3.0324415406e+000;3.2978884934e+000;3.0693342466e+000;3.0379137292e+000;2.8717796123e+000;2.8794935136e+000;2.9183123275e+000;2.9917409478e+000;2.9469910064e+000;3.0867308392e+000;3.1009513818e+000;3.0638429024e+000;2.9996173957e+000;3.0894263553e+000;3.0760211698e+000;3.1080677366e+000;3.1577861421e+000;3.0373346477e+000;3.0604862497e+000;
1.3746093750e+001;3.0758530276e+000;3.1621223071e+000;3.0601229822e+000;3.0822341918e+000;2.9097076659e+000;3.0311053664e+000;3.2808991797e+000;2.8930267424e+000;2.7346271042e+000;2.9219717634e+000;2.8951459298e+000;2.7903251798e+000;2.7175765462e+000;2.8285571062e+000;3.1584243092e+000;3.0952963502e+000;3.1644408966e+000;2.8926777401e+000;2.8287539248e+000;3.0200723872e+000;2.9745539459e+000;2.7942929045e+000;2.9925461472e+000;3.1227822773e+000;2.9815462558e+000;2.8924537599e+000;2.9701477572e+000;2.9831556399e+000;2.9632235944e+000;3.1155583388e+000;2.8653425806e+000;2.8290522980e+000;
1.3845703125e+001;3.1150558672e+000;3.1361034773e+000;3.0770539424e+000;3.0886978896e+000;2.9173035075e+000;3.0340505807e+000;3.1480377106e+000;2.8994395481e+000;2.7579367858e+000;2.8824315193e+000;2.8712242700e+000;2.7904074433e+000;2.8494243393e+000;2.8042252986e+000;3.1665893393e+000;3.1176828458e+000;3.1775225094e+000;3.0025834888e+000;2.9530970727e+000;3.0993168030e+000;3.0600700814e+000;2.8709120608e+000;3.0701719646e+000;3.1016258256e+000;3.1224173089e+000;2.9219240182e+000;3.0543441107e+000;3.1023774841e+000;3.0599423874e+000;3.0389129138e+000;2.9185168515e+000;2.8639733606e+000;
1.3945312500e+001;2.9618551030e+000;3.1008930779e+000;2.9806432446e+000;2.9676603337e+000;2.7842754596e+000;2.9157168663e+000;3.1081162844e+000;2.7874843725e+000;2.6579794208e+000;2.7970691666e+000;2.8213632894e+000;2.7117306753e+000;2.8253355797e+000;2.7731367113e+000;3.1573847488e+000;3.1479433644e+000;3.3513483618e+000;3.0982235025e+000;2.9624603384e+000;3.1362037951e+000;2.9973084849e+000;2.8161718206e+000;3.0015091791e+000;3.0177027738e+000;3.0039019583e+000;2.8059121943e+000;2.9421618982e+000;2.9978507400e+000;2.9689318958e+000;2.9795601068e+000;2.8246969129e+000;2.7627795906e+000;
1.4044921875e+001;3.0154876983e+000;3.1687637199e+000;3.0298423372e+000;3.0356310812e+000;2.8794657976e+000;2.9418685654e+000;3.1581469091e+000;2.8453201579e+000;2.7078774924e+000;2.8126380061e+000;2.7995039725e+000;2.7022778269e+000;2.7379850441e+000;2.7046645693e+000;3.0028934603e+000;2.9615758519e+000;3.0464733144e+000;2.9012098894e+000;2.8846225680e+000;3.0211718155e+000;3.0317101468e+000;2.8497403428e+000;3.0622961397e+000;3.1268833686e+000;3.0772801577e+000;2.9127814983e+000;3.0658338178e+000;3.1209022791e+000;3.0764448076e+000;3.0377292779e+000;2.9360984445e+000;2.8546909008e+000;
1.4144531250e+001;2.9962673172e+000;3.1045662024e+000;2.9992487828e+000;2.9704959219e+000;2.8032475111e+000;2.9191258475e+000;3.1785464116e+000;2.7947335582e+000;2.6565111066e+000;2.7899548188e+000;2.7815021345e+000;2.6811290232e+000;2.7275421658e+000;2.6912161271e+000;3.0255039805e+000;2.9035913936e+000;2.9001198797e+000;2.8193994084e+000;2.7963309073e+000;2.9030052910e+000;2.9525319489e+000;2.7599105115e+000;2.9601503099e+000;3.0479847186e+000;3.0069871948e+000;2.8115805703e+000;2.9674858173e+000;3.0367852881e+000;2.9942482897e+000;2.9834954006e+000;2.8335770171e+000;2.7796923764e+000;
1.4244140625e+001;3.0031867125e+000;3.1048329475e+000;2.9802634934e+000;2.9716727178e+000;2.7903201789e+000;2.9121767027e+000;3.1030628188e+000;2.7858081692e+000;2.6444129584e+000;2.7805821032e+000;2.7760320246e+000;2.6800558372e+000;2.6697535894e+000;2.6869253238e+000;3.0349764730e+000;2.9063468134e+000;2.8791054022e+000;2.7858602282e+000;2.7532697197e+000;2.8991170640e+000;2.9408550234e+000;2.7099470509e+000;2.9444395718e+000;3.0623975226e+000;3.0063075334e+000;2.7932764605e+000;2.9416925585e+000;3.0334983013e+000;2.9908733712e+000;2.9915782826e+000;2.8249827481e+000;2.7472368391e+000;
1.4343750000e+001;2.9530029098e+000;3.1007894227e+000;2.9679594341e+000;2.9622294281e+000;2.7707563271e+000;2.9010105785e+000;3.0852230578e+000;2.7723376337e+000;2.6271504520e+000;2.7713157420e+000;2.7732026758e+000;2.6625807387e+000;2.6490654191e+000;2.6765854443e+000;3.0287670394e+000;2.8971074964e+000;2.8851562873e+000;2.7878077534e+000;2.7533515588e+000;2.8999210387e+000;2.9333322419e+000;2.7003124371e+000;2.9278714411e+000;3.0401085144e+000;2.9826567672e+000;2.7723574819e+000;2.9340651383e+000;3.0097523462e+000;3.0041626627e+000;2.9879416988e+000;2.8197647720e+000;2.7249674460e+000;
1.4443359375e+001;2.9431087076e+000;3.1160297780e+000;2.9609596011e+000;2.9749540034e+000;2.7979804989e+000;2.8971129988e+000;3.0937034988e+000;2.7692849618e+000;2.6380334644e+000;2.7669678792e+000;2.7857450511e+000;2.6554388859e+000;2.6764383572e+000;2.6633146612e+000;3.0171965379e+000;2.8771661709e+000;2.8811356635e+000;2.7710941691e+000;2.7601285898e+000;2.9131733900e+000;2.9328602593e+000;2.7279251042e+000;2.9425495914e+000;3.0409240590e+000;2.9799904304e+000;2.8111841657e+000;2.9624568393e+000;2.9910710337e+000;3.0336067631e+000;2.9831067057e+000;2.8383236550e+000;2.7508904465e+000;
1.4542968750e+001;2.8973103837e+000;3.0846104585e+000;2.9529965439e+000;2.9200968169e+000;2.7086231383e+000;2.8942500347e+000;3.0982081607e+000;2.7417035577e+000;2.5716355753e+000;2.7623393815e+000;2.7895131547e+000;2.6296089005e+000;2.6254408648e+000;2.6154425119e+000;2.9610481335e+000;2.8001898529e+000;2.8097007210e+000;2.7368610599e+000;2.7120599772e+000;2.8722731489e+000;2.8912124326e+000;2.6561373984e+000;2.8512265638e+000;3.0222107977e+000;2.9046264727e+000;2.6909305856e+000;2.8762874288e+000;2.9559531110e+000;2.9769107389e+000;2.9439501063e+000;2.7772368733e+000;2.6459406432e+000;
1.4642578125e+001;2.9524282676e+000;3.0967609057e+000;3.0251252781e+000;2.9232766150e+000;2.7294879957e+000;2.9876588406e+000;3.2535504556e+000;2.8326817147e+000;2.6188824606e+000;2.9536587531e+000;3.0493819083e+000;2.8125909941e+000;2.5940986668e+000;2.7672630776e+000;3.1757821976e+000;3.0021957809e+000;2.9875912172e+000;2.7458049552e+000;2.7050484615e+000;2.9388779667e+000;2.8939463522e+000;2.6420671965e+000;2.8272316725e+000;3.0781297164e+000;2.8842247864e+000;2.6907166496e+000;2.8664117739e+000;2.9288007747e+000;2.9706989143e+000;2.9322388855e+000;2.7898263625e+000;2.6514529093e+000;
1.4742187500e+001;3.0356008263e+000;3.1807291171e+000;2.9947782478e+000;3.0317796979e+000;2.8815018160e+000;2.9507189186e+000;3.1678070288e+000;2.8311176923e+000;2.6866948079e+000;2.8352267630e+000;2.8156358945e+000;2.7122189293e+000;2.6156561588e+000;2.6774750192e+000;2.9807320430e+000;2.8413822174e+000;2.8951528956e+000;2.7349178778e+000;2.7246900010e+000;2.9338983672e+000;2.9150495125e+000;2.7116453908e+000;2.8848171561e+000;3.0488122438e+000;2.9159642340e+000;2.8565579929e+000;2.9974948050e+000;2.9784375949e+000;3.0838453022e+000;3.0403697421e+000;2.9990887297e+000;2.7832031584e+000;
1.4841796875e+001;3.3300381748e+000;3.3971990748e+000;3.3167067455e+000;3.3004929941e+000;3.1895145024e+000;3.3350336187e+000;3.3835717972e+000;3.1738909223e+000;3.0070561724e+000;3.1900957279e+000;3.1653023593e+000;2.9947925778e+000;2.7633408678e+000;2.9052851194e+000;3.1239282912e+000;3.0216578762e+000;3.1405794866e+000;2.8898172838e+000;2.9500473107e+000;3.2562283952e+000;3.2125349502e+000;2.9804883858e+000;3.2155316943e+000;3.4498650479e+000;3.2388380219e+000;3.1355476276e+000;3.2885617925e+000;3.3086982573e+000;3.3123868963e+000;3.2645434746e+000;3.2159696278e+000;3.0674650424e+000;
1.4941406250e+001;3.1703062777e+000;3.3077032151e+000;3.2252615693e+000;3.2081256640e+000;3.0328827032e+000;3.2403046941e+000;3.3408709319e+000;3.0381414721e+000;2.8164551596e+000;3.0547436230e+000;2.9363955563e+000;2.8142962346e+000;2.6748295330e+000;2.6667529214e+000;2.8108300495e+000;2.6517513019e+000;2.7069718162e+000;2.6884152947e+000;2.7574945558e+000;2.8892599082e+000;2.9476758618e+000;2.7886200065e+000;2.9648007685e+000;3.1618256153e+000;2.9842733761e+000;2.9361288398e+000;3.0423392185e+000;3.0630862235e+000;3.1329624905e+000;3.2177105311e+000;3.0640747793e+000;2.9042802987e+000;
1.5041015625e+001;3.4372963378e+000;3.3440961653e+000;3.4330801754e+000;3.2557066091e+000;3.0749593164e+000;3.4182080333e+000;3.6487594264e+000;3.1859154877e+000;2.8998854089e+000;3.2911829102e+000;3.2381627682e+000;2.9837700487e+000;2.7748171913e+000;2.8527122716e+000;3.0357421382e+000;2.9261697790e+000;2.9279951516e+000;2.8209483279e+000;2.8880332194e+000;3.1022721394e+000;3.1067646855e+000;2.8977437435e+000;3.0853706269e+000;3.3071713704e+000;3.1746716540e+000;3.0096850291e+000;3.1627911450e+000;3.2318997833e+000;3.2303341490e+000;3.2384042917e+000;3.0757379875e+000;2.9578607068e+000;
1.5140625000e+001;3.4048789329e+000;3.4037564589e+000;3.3211513460e+000;3.3199191109e+000;3.2251129205e+000;3.2987816645e+000;3.2737988645e+000;3.1264287985e+000;3.0052857411e+000;3.0544525032e+000;3.0937101437e+000;2.9503193363e+000;2.8819451773e+000;2.9053374740e+000;3.0517869844e+000;2.9719368100e+000;2.9205136997e+000;2.9267015025e+000;3.0435822309e+000;3.2164543061e+000;3.3105146774e+000;3.0715444778e+000;3.2709635192e+000;3.5311697375e+000;3.3069826314e+000;3.2608099040e+000;3.3180573059e+000;3.3238248943e+000;3.3734211965e+000;3.4985449064e+000;3.3045515877e+000;3.1662239996e+000;
1.5240234375e+001;3.3661607741e+000;3.6787585025e+000;3.4543758961e+000;3.5414603800e+000;3.3966287643e+000;3.4315236554e+000;3.4639673784e+000;3.2855782743e+000;3.2004646028e+000;3.1836453482e+000;3.2011250201e+000;3.1045028925e+000;3.0315740361e+000;3.0762394133e+000;3.2663933984e+000;3.2459430221e+000;3.1805757867e+000;3.1040224487e+000;3.1955897980e+000;3.3558300154e+000;3.4111605634e+000;3.2145021693e+000;3.4560491919e+000;3.4918860116e+000;3.5256647928e+000;3.4349557152e+000;3.5579314600e+000;3.4371823896e+000;3.6003261833e+000;3.2749024853e+000;3.5346740151e+000;3.2994168326e+000;
1.5339843750e+001;3.1766834716e+000;3.2541792633e+000;3.2780313217e+000;3.1781210457e+000;3.0831337449e+000;3.2699606172e+000;3.2932921402e+000;3.0843566720e+000;2.9237532781e+000;3.0183583852e+000;2.9320666554e+000;2.8601637836e+000;2.7155484788e+000;2.7655721693e+000;2.8970993985e+000;2.7786122683e+000;2.7421074882e+000;2.7413734901e+000;2.8786468652e+000;3.0308498825e+000;3.1415649549e+000;2.9209466914e+000;3.1290369885e+000;3.2724873377e+000;3.1537595455e+000;3.0642717983e+000;3.1203680324e+000;3.0996273249e+000;3.2076477515e+000;3.1859596105e+000;3.1757626066e+000;3.0145978754e+000;
1.5439453125e+001;2.9733941211e+000;3.0660298776e+000;3.0687252545e+000;3.0044361452e+000;2.9305890757e+000;3.1004609516e+000;3.2158637084e+000;2.9720865693e+000;2.8416615172e+000;2.9414183940e+000;2.9627607519e+000;2.8327768074e+000;2.6476186950e+000;2.7580024980e+000;2.8838926492e+000;2.7295894460e+000;2.7304914957e+000;2.6474982976e+000;2.7933140825e+000;2.9592834114e+000;3.0182644050e+000;2.8240446270e+000;3.0210993633e+000;3.2588461495e+000;3.0142709120e+000;2.9084976256e+000;2.9815917748e+000;2.9682855529e+000;3.0507183577e+000;3.1203249726e+000;3.0081430782e+000;2.8833238442e+000;
1.5539062500e+001;3.0885429145e+000;3.1322528189e+000;3.1787333856e+000;3.0664956120e+000;2.9875196969e+000;3.1592862595e+000;3.3294928713e+000;2.9876336173e+000;2.8321943648e+000;2.9377323229e+000;2.9649795611e+000;2.8145604005e+000;2.6267735801e+000;2.7163222216e+000;2.8722360815e+000;2.7109235692e+000;2.7854975808e+000;2.6892091464e+000;2.8089447812e+000;2.9818400071e+000;3.0785747232e+000;2.8240786614e+000;3.0425058549e+000;3.3099890637e+000;3.0688067528e+000;2.9621122865e+000;3.0228906927e+000;3.0691874464e+000;3.1052672382e+000;3.2111611744e+000;3.1060709864e+000;2.9144415235e+000;
1.5638671875e+001;3.1824260220e+000;3.1827849590e+000;3.2111232903e+000;3.1165250850e+000;3.0172211781e+000;3.1721628737e+000;3.4913305335e+000;3.0061063358e+000;2.8689443006e+000;2.9960338140e+000;3.0067244437e+000;2.8694584034e+000;2.7012540943e+000;2.7944712553e+000;2.9261280030e+000;2.7999575540e+000;2.8461130657e+000;2.7743543372e+000;2.8730343062e+000;3.0487644382e+000;3.1326935078e+000;2.8769035121e+000;3.0867441835e+000;3.4543395990e+000;3.1356712993e+000;3.0328098363e+000;3.1155652400e+000;3.1036716580e+000;3.1575516415e+000;3.3657299287e+000;3.1233500078e+000;2.9609588563e+000;
1.5738281250e+001;3.1556171630e+000;3.3220575519e+000;3.2869471427e+000;3.2372027836e+000;3.1620676049e+000;3.3103624937e+000;3.4368044953e+000;3.2022938504e+000;3.0726806928e+000;3.1827307678e+000;3.1927438184e+000;3.1000524088e+000;2.8556267127e+000;3.0583354029e+000;3.2913814655e+000;3.0653255589e+000;3.0649247366e+000;2.9029217545e+000;2.9968788336e+000;3.1451984967e+000;3.2565657217e+000;3.0264132908e+000;3.2224301462e+000;3.4860220505e+000;3.2419690573e+000;3.1633483786e+000;3.2349796289e+000;3.2118385430e+000;3.2906006087e+000;3.2128516946e+000;3.2572592618e+000;3.1222384757e+000;
1.5837890625e+001;3.5744427694e+000;3.2920413362e+000;3.4010481039e+000;3.2422077967e+000;3.2037691101e+000;3.3209551471e+000;3.5523290512e+000;3.2188923056e+000;3.0948327031e+000;3.2152235552e+000;3.2439836469e+000;3.1130792260e+000;2.9266950701e+000;3.0319007890e+000;3.1680823836e+000;3.0469970271e+000;2.9913214979e+000;2.9557757457e+000;3.0878807612e+000;3.2553451096e+000;3.3233964832e+000;3.1090541398e+000;3.3351797004e+000;3.5310209137e+000;3.3122336690e+000;3.2063600053e+000;3.3341728711e+000;3.3427427457e+000;3.4193294339e+000;3.3111072902e+000;3.3315817801e+000;3.1783589223e+000;
1.5937500000e+001;3.8815674870e+000;3.9543301919e+000;3.9752754451e+000;3.9085375438e+000;3.8516411491e+000;3.9620495438e+000;3.9061163979e+000;3.8868226645e+000;3.7772421792e+000;3.8405391522e+000;3.8456929652e+000;3.7783457147e+000;3.5402614631e+000;3.7357050272e+000;3.7991687986e+000;3.7640547666e+000;3.7870710566e+000;3.6040443647e+000;3.6870910196e+000;3.8572017266e+000;3.8791803563e+000;3.7199020739e+000;3.8523745007e+000;3.9314857618e+000;3.8841573805e+000;3.8018760682e+000;3.8058976111e+000;3.8616982609e+000;3.8203478219e+000;3.8641464000e+000;3.9306912496e+000;3.8249700930e+000;
1.6037109375e+001;2.7663638631e+000;2.8699661433e+000;2.9426665525e+000;2.7456207126e+000;2.6845690684e+000;2.8916502805e+000;3.0131365518e+000;2.6348230752e+000;2.5737683878e+000;2.5716749451e+000;2.5719519274e+000;2.4694861618e+000;2.5726321545e+000;2.4582038350e+000;2.5435045679e+000;2.4555894002e+000;2.6694881399e+000;2.7253045271e+000;2.7931596720e+000;2.9374265689e+000;2.8814516912e+000;2.6827051310e+000;2.8421399959e+000;3.0325928368e+000;2.7976039354e+000;2.7004233301e+000;2.8028388639e+000;2.7268926032e+000;2.9294078868e+000;2.7037065077e+000;2.9834934738e+000;2.6686981563e+000;
1.6136718750e+001;2.6371999382e+000;2.6017280437e+000;2.8318427709e+000;2.6514820708e+000;2.5198793421e+000;2.7037164476e+000;2.8888761807e+000;2.4408736435e+000;2.3628923859e+000;2.3692213732e+000;2.3975721321e+000;2.2888060344e+000;2.4910572507e+000;2.2639747447e+000;2.3702577206e+000;2.2386235232e+000;2.5241872880e+000;2.6019608513e+000;2.6429001978e+000;2.7648281858e+000;2.7188797556e+000;2.5250703154e+000;2.6311543156e+000;2.9386455896e+000;2.6340917003e+000;2.5174265845e+000;2.5694106689e+000;2.5349506139e+000;2.5887911971e+000;2.6520202640e+000;2.8741301896e+000;2.4915191996e+000;
1.6236328125e+001;2.9033598621e+000;2.8292259188e+000;2.9810393084e+000;2.8484352183e+000;2.7387615873e+000;2.8837897875e+000;3.0765726505e+000;2.6383784126e+000;2.5393337928e+000;2.5555393845e+000;2.6261670746e+000;2.4528386145e+000;2.6042945886e+000;2.4205940563e+000;2.5042066128e+000;2.3827096676e+000;2.5389808425e+000;2.6432968081e+000;2.7253033218e+000;2.8596999812e+000;2.7873300945e+000;2.6922044656e+000;2.7899105320e+000;2.9821891311e+000;2.7859251463e+000;2.7496992496e+000;2.9208564162e+000;2.6966973895e+000;2.9754297307e+000;2.8134212160e+000;3.1083872739e+000;2.6928919708e+000;
1.6335937500e+001;2.7263817963e+000;2.5353869464e+000;2.8350680691e+000;2.6657788694e+000;2.6262490920e+000;2.7784479048e+000;2.9408209197e+000;2.5448638471e+000;2.4708932959e+000;2.4883416463e+000;2.5202852702e+000;2.3923937219e+000;2.5257106637e+000;2.4057286033e+000;2.5664114726e+000;2.4546175663e+000;2.6417904036e+000;2.5966377369e+000;2.6581280408e+000;2.8079667663e+000;2.7215643080e+000;2.6348281233e+000;2.6804854041e+000;2.8787582712e+000;2.6404591135e+000;2.6606860825e+000;2.6401577747e+000;2.4542901337e+000;2.6668448669e+000;2.5941255992e+000;3.0127069479e+000;2.6442171208e+000;
1.6435546875e+001;2.9799787883e+000;2.7150625052e+000;2.8763262405e+000;2.7139763949e+000;2.6893388761e+000;2.8647830813e+000;2.8876996718e+000;2.6287989436e+000;2.5641964728e+000;2.5882471611e+000;2.5381189895e+000;2.4572745062e+000;2.6413834015e+000;2.4652346854e+000;2.4913677956e+000;2.4964429879e+000;2.8049713644e+000;2.7168178707e+000;2.7966968863e+000;2.9167964713e+000;2.8584405036e+000;2.7221146683e+000;2.8206617786e+000;2.9074169966e+000;2.8380109043e+000;2.7685318922e+000;2.7835783385e+000;2.8012953843e+000;2.7235697895e+000;2.9510113282e+000;3.0920050871e+000;2.7019598651e+000;
1.6535156250e+001;3.0747756350e+000;2.4521895910e+000;2.7827867919e+000;2.5437524318e+000;2.5482230272e+000;2.7568690962e+000;2.9010738009e+000;2.5499820347e+000;2.4440848013e+000;2.5807451936e+000;2.6364336572e+000;2.4390177486e+000;2.4494613335e+000;2.4514453761e+000;2.7682442452e+000;2.5476689632e+000;2.7372415911e+000;2.6070863430e+000;2.6749338538e+000;2.9337652354e+000;2.8140704217e+000;2.5784314163e+000;2.7147598427e+000;2.9406425213e+000;2.7506650569e+000;2.6334464199e+000;2.5600651956e+000;2.8235461469e+000;2.5882748161e+000;3.0463142239e+000;2.9540655924e+000;2.5892882104e+000;
1.6634765625e+001;3.2896265216e+000;2.6531602448e+000;3.0064397750e+000;2.8182650382e+000;2.8042088517e+000;3.0383890862e+000;3.1273907349e+000;2.8775571988e+000;2.7720494574e+000;2.9386055799e+000;3.0320076151e+000;2.8498631234e+000;2.6452920899e+000;2.8390246048e+000;3.0840994661e+000;2.8577563567e+000;2.9161575216e+000;2.7585557806e+000;2.7825764376e+000;3.0160565639e+000;2.8623980467e+000;2.7422336776e+000;2.8143214741e+000;3.0108612280e+000;2.7574018684e+000;2.7943962953e+000;2.6882210278e+000;2.8805734609e+000;2.7472754801e+000;3.1255412175e+000;3.0721963425e+000;2.8092272448e+000;
1.6734375000e+001;3.1938001387e+000;2.6155513379e+000;2.8499591771e+000;2.7030872183e+000;2.6900295743e+000;2.8876183679e+000;2.9349610463e+000;2.6946044629e+000;2.5809213038e+000;2.6836468273e+000;2.7726518332e+000;2.5701758155e+000;2.6149949474e+000;2.5843883489e+000;2.9032281899e+000;2.6415767686e+000;2.7504509049e+000;2.6773686199e+000;2.6587069821e+000;2.8466169584e+000;2.7209638878e+000;2.6455349195e+000;2.7049133997e+000;2.8774313668e+000;2.6713486246e+000;2.7071579653e+000;2.6046574917e+000;2.7461812891e+000;2.7604403261e+000;3.0209397508e+000;3.0249423728e+000;2.7023591453e+000;
1.6833984375e+001;3.2262343159e+000;2.8568996251e+000;2.9604382168e+000;2.8728456040e+000;2.8516943134e+000;2.9909367025e+000;2.9890535572e+000;2.8267464026e+000;2.6937513183e+000;2.7853012307e+000;2.8797528467e+000;2.6878044928e+000;2.6680576134e+000;2.6917732909e+000;2.9889256281e+000;2.7192677530e+000;2.8321878135e+000;2.6820396609e+000;2.7444889839e+000;2.9775183579e+000;2.8324535808e+000;2.7673693581e+000;2.8386199023e+000;3.0828352795e+000;2.7880023985e+000;2.8544289033e+000;2.8069654500e+000;2.8434003619e+000;2.9556458115e+000;3.1027458713e+000;3.1414172973e+000;2.8532429654e+000;
1.6933593750e+001;3.2866557127e+000;2.7321895878e+000;2.9127112040e+000;2.8226621983e+000;2.8216785408e+000;2.9694375013e+000;2.9826655235e+000;2.7886173282e+000;2.7100646593e+000;2.7702992237e+000;2.9014500157e+000;2.7050399099e+000;2.7534660645e+000;2.7027116655e+000;3.0299960765e+000;2.7661649424e+000;2.9597005093e+000;2.8310336961e+000;2.8642166043e+000;3.0862330252e+000;2.9551483099e+000;2.8113232946e+000;2.8795567203e+000;3.0784335419e+000;2.9279756038e+000;2.8615549407e+000;2.7974328647e+000;3.0132314348e+000;2.8782349767e+000;3.2350426544e+000;3.1166496619e+000;2.8346725103e+000;
1.7033203125e+001;3.3091805922e+000;2.7974165183e+000;2.9910879445e+000;2.8698781171e+000;2.8133341032e+000;3.0048444023e+000;3.0776031844e+000;2.7944269190e+000;2.6738636764e+000;2.8210385259e+000;2.9042651484e+000;2.7057713757e+000;2.7651084171e+000;2.7038281411e+000;3.0113841756e+000;2.7506672932e+000;2.9315553483e+000;2.8649266635e+000;2.9260975793e+000;3.1333922505e+000;3.0229820554e+000;2.8411687029e+000;2.9799330840e+000;3.1763524197e+000;3.0286702810e+000;2.9005903057e+000;2.8450860201e+000;3.1053091077e+000;2.9011517994e+000;3.2861223399e+000;3.1407617221e+000;2.8335446482e+000;
1.7132812500e+001;3.3385227137e+000;2.8572860242e+000;2.9879687311e+000;2.8891451279e+000;2.8109133203e+000;2.9962670752e+000;3.0563292146e+000;2.7914514336e+000;2.6504739712e+000;2.7954580898e+000;2.8634495558e+000;2.6491113270e+000;2.7153524153e+000;2.6301874966e+000;2.9321018625e+000;2.7249330470e+000;2.9322154111e+000;2.8216863889e+000;2.8785151638e+000;3.1374295407e+000;2.9987821326e+000;2.7963951864e+000;2.9598292411e+000;3.1269542198e+000;3.0386537800e+000;2.9072326529e+000;2.8676765162e+000;3.1088817533e+000;2.9313834797e+000;3.2939270855e+000;3.1368296093e+000;2.8157295242e+000;
1.7232421875e+001;3.3408418660e+000;2.7974393163e+000;2.9990596915e+000;2.8563193016e+000;2.7904471095e+000;3.0233292064e+000;3.0525296000e+000;2.7782977249e+000;2.6140123808e+000;2.7826081207e+000;2.8661436299e+000;2.6263294398e+000;2.6802636601e+000;2.5843166487e+000;2.8859422319e+000;2.6630438267e+000;2.9005822032e+000;2.7589496030e+000;2.8341821261e+000;3.1278692640e+000;2.9767156106e+000;2.7742758759e+000;2.9476761555e+000;3.1189574372e+000;3.0298216614e+000;2.8853435847e+000;2.8534564840e+000;3.1095852630e+000;2.8761555923e+000;3.2838233214e+000;3.1211632817e+000;2.7850813490e+000;
1.7332031250e+001;3.3268714938e+000;2.7816028953e+000;2.9733151623e+000;2.8424125176e+000;2.7765549162e+000;2.9642382555e+000;3.1846867907e+000;2.7435743382e+000;2.5908272813e+000;2.7630672502e+000;2.8569419883e+000;2.5953352266e+000;2.6431691887e+000;2.5697410520e+000;2.8818157848e+000;2.6569529489e+000;2.8793607307e+000;2.7386569580e+000;2.8132274605e+000;3.1136126223e+000;2.9633767649e+000;2.7598627922e+000;2.9332269243e+000;3.1049318764e+000;3.0212461951e+000;2.8707771227e+000;2.8277645737e+000;3.1061481286e+000;2.8650531957e+000;3.2842677462e+000;3.1155154297e+000;2.7713455584e+000;
1.7431640625e+001;3.3311464444e+000;2.7831148739e+000;2.9827560744e+000;2.8308264700e+000;2.7470642249e+000;2.9537553647e+000;3.0823191075e+000;2.7248264344e+000;2.5742393183e+000;2.7473503020e+000;2.8308390082e+000;2.5693082643e+000;2.6572521128e+000;2.5558771091e+000;2.8675843509e+000;2.6617359654e+000;2.8843819447e+000;2.7610105230e+000;2.8265944168e+000;3.1009344409e+000;2.9525984359e+000;2.7624795099e+000;2.9220176459e+000;3.0975394888e+000;3.0150348450e+000;2.8518963408e+000;2.8112920445e+000;3.1002534855e+000;2.8676244755e+000;3.2759099035e+000;3.1012401316e+000;2.7561636734e+000;
1.7531250000e+001;3.3428281831e+000;2.8434125763e+000;3.0747821894e+000;2.9146740321e+000;2.7412230698e+000;3.0034701170e+000;3.0622205545e+000;2.7538716169e+000;2.5500337271e+000;2.7816774790e+000;2.8715371445e+000;2.5677638223e+000;2.6410776349e+000;2.5360970725e+000;2.8669548597e+000;2.6630534890e+000;2.8674036722e+000;2.7958268110e+000;2.8206983414e+000;3.0939695996e+000;2.9375734301e+000;2.7279676880e+000;2.9064168063e+000;3.0869821332e+000;3.0143834624e+000;2.8387655536e+000;2.8248308332e+000;3.1240562672e+000;2.9012874750e+000;3.2858539236e+000;3.1244713688e+000;2.7189370300e+000;
1.7630859375e+001;3.4314944884e+000;3.0034052396e+000;3.1707943546e+000;3.0197749606e+000;2.8932731839e+000;3.1354219860e+000;3.2990475494e+000;2.8733413935e+000;2.7470082952e+000;2.9106927533e+000;3.0280984090e+000;2.7434224058e+000;2.6871111826e+000;2.7184073031e+000;2.9965818583e+000;2.8431366653e+000;3.0112974576e+000;2.8134732285e+000;2.8549170072e+000;3.1608057934e+000;3.0153253942e+000;2.8284788971e+000;2.9618828668e+000;3.2058195885e+000;3.0834351944e+000;2.9519904762e+000;2.9157616829e+000;3.2682760990e+000;2.9731747455e+000;3.4020211829e+000;3.2287140294e+000;2.8382235893e+000;
1.7730468750e+001;3.3738799775e+000;2.8206523096e+000;3.0346553674e+000;2.8702558467e+000;2.7227885071e+000;2.9443069071e+000;3.0021474015e+000;2.7639463997e+000;2.5976412974e+000;2.7826893580e+000;2.8529214943e+000;2.6139889495e+000;2.7004777629e+000;2.5866206071e+000;2.9716161083e+000;2.7626537558e+000;2.9289913731e+000;2.8013429602e+000;2.8528532753e+000;3.1137138688e+000;2.9647641525e+000;2.7892774959e+000;2.9502794915e+000;3.0864467540e+000;3.0242791773e+000;2.8673287875e+000;2.8503507558e+000;3.1601789187e+000;2.8827071426e+000;3.3253688273e+000;3.1023708766e+000;2.7408373943e+000;
1.7830078125e+001;3.6512417763e+000;3.1465383341e+000;3.4106667140e+000;3.2307757227e+000;3.1199720095e+000;3.2910179981e+000;3.3011751752e+000;3.1152697811e+000;2.9932653178e+000;3.1562653994e+000;3.1849568497e+000;2.9671585723e+000;2.8859475267e+000;2.9495932908e+000;3.2295639065e+000;3.1542001265e+000;3.3760179077e+000;3.0919759302e+000;3.1278150562e+000;3.4332012083e+000;3.2632762807e+000;3.0675528817e+000;3.2027408286e+000;3.4313637818e+000;3.2621416579e+000;3.2361095889e+000;3.1680972019e+000;3.3958134135e+000;3.1937612106e+000;3.6033884582e+000;3.4371059993e+000;3.1200742712e+000;
1.7929687500e+001;3.6641850663e+000;3.2248248157e+000;3.4819212170e+000;3.3090427976e+000;3.1399745886e+000;3.3095485430e+000;3.4294300437e+000;3.1545606026e+000;3.0277762498e+000;3.2445326001e+000;3.3166398878e+000;3.0850831387e+000;2.9049182582e+000;3.0412772625e+000;3.4159328417e+000;3.2602491019e+000;3.3656181038e+000;3.0960925305e+000;3.1894474743e+000;3.5373910245e+000;3.4219997551e+000;3.1493701236e+000;3.4000068526e+000;3.4833710394e+000;3.3591417564e+000;3.3100691695e+000;3.3098756481e+000;3.4499758905e+000;3.3715063882e+000;3.4759612132e+000;3.5177738600e+000;3.1452875911e+000;
1.8029296875e+001;3.6205800220e+000;3.0026372863e+000;3.2108885711e+000;3.1253838632e+000;2.8673923270e+000;3.1071265867e+000;3.0554379740e+000;2.9723693421e+000;2.6586371701e+000;3.0055317397e+000;3.0021363358e+000;2.7009258112e+000;2.6943288564e+000;2.5674238335e+000;2.9920941992e+000;2.7939306175e+000;2.9767725952e+000;2.8434246000e+000;2.9229826025e+000;3.2093518003e+000;3.1093435023e+000;2.8708684219e+000;3.1536659746e+000;3.1585237958e+000;3.2677011911e+000;3.0084525292e+000;3.1038244234e+000;3.3243683844e+000;3.0889081284e+000;3.6033413812e+000;3.2099785922e+000;2.7849005719e+000;
1.8128906250e+001;3.3155930283e+000;2.8084971761e+000;2.8243022239e+000;2.7631531243e+000;2.6260390532e+000;2.6095803265e+000;2.9159060172e+000;2.6172367120e+000;2.4189870753e+000;2.7154986736e+000;2.7414953532e+000;2.4819824004e+000;2.5160556198e+000;2.4281524250e+000;2.9737797617e+000;2.7540574339e+000;2.9056210880e+000;2.7237601887e+000;2.7235202225e+000;3.0237684139e+000;2.8333278285e+000;2.6395225407e+000;2.8954518463e+000;2.8734278561e+000;2.9859734208e+000;2.7798818324e+000;2.7483879110e+000;3.2096562476e+000;2.8495071005e+000;3.3434136044e+000;2.9891231565e+000;2.5856354123e+000;
1.8228515625e+001;3.3705647612e+000;2.7546398001e+000;2.8212287275e+000;2.8164784310e+000;2.7879755108e+000;2.6916820584e+000;2.8281146228e+000;2.8117074971e+000;2.6315021089e+000;2.8691943814e+000;2.9560988345e+000;2.7399140074e+000;2.7215972173e+000;2.7166253690e+000;3.2698393041e+000;3.0633914843e+000;3.1725707123e+000;2.9845877068e+000;2.9707074770e+000;3.2807412048e+000;3.0654871034e+000;2.8436758248e+000;2.9820244242e+000;3.1618199264e+000;3.2474948381e+000;2.9154516910e+000;2.9004739209e+000;3.3897813090e+000;3.0023394240e+000;3.3354608060e+000;3.0110293463e+000;2.7967386786e+000;
1.8328125000e+001;3.3329684733e+000;2.8873275017e+000;2.8337551023e+000;2.9294351445e+000;2.9209530968e+000;2.8705691446e+000;2.8445386401e+000;2.8989916050e+000;2.7851605524e+000;2.9451615130e+000;3.1132795463e+000;2.8637487805e+000;2.8050035120e+000;2.8498678382e+000;3.3794122056e+000;3.1586913560e+000;3.2011136867e+000;2.9836579525e+000;3.0243275299e+000;3.2230534744e+000;3.1164129555e+000;2.9188345357e+000;3.1320471302e+000;3.2267584412e+000;3.2455241538e+000;2.9903524593e+000;2.9811502880e+000;3.4305026278e+000;3.0366711033e+000;3.4187403877e+000;3.1048353572e+000;2.8631039842e+000;
1.8427734375e+001;3.4674532728e+000;2.8826009412e+000;3.0673559072e+000;3.0119697313e+000;3.0643397640e+000;3.0648813596e+000;3.2105896169e+000;2.9434100085e+000;2.9014435676e+000;2.9896144057e+000;3.0851921471e+000;2.8978237547e+000;2.9391382864e+000;2.8806491902e+000;3.3418286050e+000;3.1946613963e+000;3.3791910549e+000;3.0948262303e+000;3.1038257473e+000;3.3130919758e+000;3.1609988093e+000;3.0477963231e+000;3.1913327151e+000;3.1494382674e+000;3.3723592513e+000;3.1231750576e+000;3.0813271257e+000;3.4604526061e+000;3.0183135356e+000;3.5412811645e+000;3.2583646024e+000;3.0341704541e+000;
1.8527343750e+001;3.4468682860e+000;2.8112944127e+000;2.9348352959e+000;2.9601053083e+000;2.9274424477e+000;2.8866710569e+000;2.6947831946e+000;2.8818224420e+000;2.7279967200e+000;2.8753438456e+000;2.9122244063e+000;2.7562603704e+000;2.7714318057e+000;2.7149666475e+000;3.1500864775e+000;2.8975537984e+000;3.0199605430e+000;2.8297278717e+000;2.8164152805e+000;3.1187582847e+000;2.8929904578e+000;2.8210248524e+000;2.9193394008e+000;3.0364922763e+000;3.0873092349e+000;2.9371598996e+000;2.8801327205e+000;3.2592684851e+000;2.9171659806e+000;3.4707819269e+000;3.2060726245e+000;2.8303210444e+000;
1.8626953125e+001;3.3301405543e+000;2.8380294224e+000;2.8550534220e+000;2.8663066873e+000;2.8422677844e+000;2.7976397521e+000;2.7484271223e+000;2.7820409218e+000;2.6742374761e+000;2.8897766971e+000;2.9193991168e+000;2.7471935315e+000;2.8610876613e+000;2.7295281151e+000;3.1444748525e+000;2.9181548835e+000;3.0695391868e+000;2.9683756410e+000;2.9473192917e+000;3.1941932340e+000;3.0136436768e+000;2.8797850759e+000;2.9615650555e+000;3.1991979164e+000;3.0929480343e+000;2.9255906669e+000;2.9246582563e+000;3.2737282170e+000;2.9554937816e+000;3.3878758846e+000;3.2104856444e+000;2.7994098544e+000;
1.8726562500e+001;3.3566199432e+000;2.8250301253e+000;2.8865640631e+000;2.8573321089e+000;2.8112552568e+000;2.8377029220e+000;2.8145613611e+000;2.8671872226e+000;2.7006000540e+000;2.9381495485e+000;2.9556011100e+000;2.7668657549e+000;2.7116198246e+000;2.7367956509e+000;3.1562296066e+000;2.9390881389e+000;3.0850386267e+000;2.8548416936e+000;2.8639954424e+000;3.1904178835e+000;3.0199292218e+000;2.8107208716e+000;2.9513172194e+000;3.2220857146e+000;3.1411774001e+000;2.8719298361e+000;2.8907935081e+000;3.3598679145e+000;2.9494600298e+000;3.4451654903e+000;2.8745212812e+000;2.7716965191e+000;
1.8826171875e+001;3.4419549963e+000;3.1183307798e+000;3.0970882528e+000;3.1484910003e+000;3.0422527990e+000;3.1663214996e+000;3.0365603602e+000;3.2122227583e+000;3.0043024780e+000;3.2867857366e+000;3.2917544099e+000;3.1409645342e+000;3.0064942980e+000;3.1413207795e+000;3.5412934593e+000;3.3165761375e+000;3.3412153429e+000;3.1192787836e+000;3.0999071683e+000;3.3607015202e+000;3.2419157556e+000;3.0261537378e+000;3.1632713092e+000;3.4438106475e+000;3.4090734398e+000;3.0663799013e+000;3.1083401570e+000;3.5906603971e+000;3.1946510043e+000;3.6377461834e+000;3.0834210661e+000;2.9761077405e+000;
1.8925781250e+001;3.4568218021e+000;3.0552815020e+000;3.0888644579e+000;3.0665814235e+000;3.0083470094e+000;3.0550909152e+000;2.9843715986e+000;3.0967167696e+000;2.9659909168e+000;3.1407298336e+000;3.1304652282e+000;3.0244601596e+000;2.9995098232e+000;3.0403873469e+000;3.3750440051e+000;3.2366185493e+000;3.3298426138e+000;3.0971839581e+000;3.0601162718e+000;3.2962271234e+000;3.1128476730e+000;3.0113921024e+000;3.0748345431e+000;3.2885426620e+000;3.1856489687e+000;3.0412765850e+000;2.9935185563e+000;3.4062826644e+000;3.0741049342e+000;3.5952149365e+000;2.9949551477e+000;2.9930853219e+000;
1.9025390625e+001;3.3777377878e+000;2.9322882077e+000;2.9845984104e+000;2.9401972168e+000;2.8983613563e+000;2.9619661834e+000;2.8860132427e+000;2.9671707835e+000;2.8799145542e+000;3.0062383571e+000;3.0564033658e+000;2.9414112527e+000;2.8918873284e+000;3.0043462064e+000;3.3917630670e+000;3.2422255287e+000;3.3431268129e+000;3.0935994311e+000;3.0159660499e+000;3.2696082834e+000;3.0516040707e+000;2.9438243081e+000;3.0148082408e+000;3.3163689766e+000;3.1524136867e+000;2.9539987996e+000;2.9388177933e+000;3.3488092377e+000;2.9917145319e+000;3.5391942651e+000;2.9297057214e+000;2.8850556605e+000;
1.9125000000e+001;3.2662283103e+000;2.9621009412e+000;2.8967102820e+000;2.8733044047e+000;2.8183217041e+000;2.8983383419e+000;2.7890537754e+000;2.8593575723e+000;2.7651496938e+000;2.9133016374e+000;2.9690198514e+000;2.8259525891e+000;2.7269306157e+000;2.8599964894e+000;3.2086572465e+000;3.0544111871e+000;3.1915005359e+000;2.8683338335e+000;2.8642939173e+000;3.2022263722e+000;2.9779870248e+000;2.8273271378e+000;2.9591078538e+000;3.3475077962e+000;3.1112196587e+000;2.9003432702e+000;2.9307683628e+000;3.3182063938e+000;2.9959978096e+000;3.4713367859e+000;2.9001552257e+000;2.7796696689e+000;
1.9224609375e+001;3.0971280274e+000;3.2721909990e+000;2.9713084234e+000;2.9731771344e+000;2.8180117087e+000;2.9394118162e+000;2.7884424945e+000;2.7962541420e+000;2.6805372330e+000;2.8115291014e+000;2.8018453852e+000;2.6402936889e+000;2.5607050558e+000;2.6115647589e+000;2.9476735962e+000;2.7857306695e+000;2.9963624043e+000;2.6485647585e+000;2.6905633124e+000;3.0330090685e+000;2.8527055489e+000;2.7247385126e+000;2.9059633192e+000;3.3445471301e+000;3.0499114142e+000;2.9258304735e+000;3.1437047286e+000;3.1956735583e+000;3.2892560593e+000;3.2338682376e+000;3.0379484203e+000;2.7313901927e+000;
1.9324218750e+001;3.1109502730e+000;2.8128388066e+000;2.9617762980e+000;2.7711436897e+000;2.6398144978e+000;2.8387071811e+000;2.9545699895e+000;2.6835612071e+000;2.6058380459e+000;2.7709407465e+000;2.7253189947e+000;2.6300790163e+000;2.6081526579e+000;2.6342123800e+000;2.9414231401e+000;2.7883929724e+000;2.9856652207e+000;2.7766112285e+000;2.8025499181e+000;3.0155390810e+000;2.8872254834e+000;2.7027828609e+000;2.8618160164e+000;3.2695564365e+000;3.0422632976e+000;2.7224018514e+000;2.8110534786e+000;3.1936134783e+000;2.8319349249e+000;3.4459664973e+000;2.7478226094e+000;2.5772845375e+000;
1.9423828125e+001;3.1529672939e+000;3.0201196994e+000;3.0902555873e+000;2.9589996200e+000;2.8100244275e+000;2.9736063538e+000;2.8763847775e+000;2.9026501426e+000;2.7983188760e+000;2.9383078120e+000;2.9285060608e+000;2.8592190465e+000;2.8626295464e+000;2.9254756052e+000;3.2207906252e+000;3.1008692633e+000;3.2917370163e+000;3.0658344333e+000;3.0098796029e+000;3.1914562255e+000;3.0159146832e+000;2.8763274348e+000;3.0029057079e+000;3.3410883806e+000;3.1528708656e+000;2.8660589163e+000;2.9646728944e+000;3.2846096920e+000;2.9720931030e+000;3.3114575075e+000;2.8740379741e+000;2.7446642370e+000;
1.9523437500e+001;3.1661369751e+000;2.7923106203e+000;2.9660459976e+000;2.8052215936e+000;2.7308394271e+000;2.8481363116e+000;3.0303499935e+000;2.8240346399e+000;2.7245756925e+000;2.9107415271e+000;2.8806376946e+000;2.8133745466e+000;2.8447380550e+000;2.8627322707e+000;3.1631867351e+000;3.0029862550e+000;3.1876992093e+000;3.0117237216e+000;2.9565721105e+000;3.1714879982e+000;2.9760369449e+000;2.8403184158e+000;2.8882986382e+000;3.3151282954e+000;3.0572546923e+000;2.7870766594e+000;2.8846390998e+000;3.2282481411e+000;2.8051679415e+000;3.2979664975e+000;2.7475631919e+000;2.7044245583e+000;
1.9623046875e+001;3.0453545205e+000;2.8252931653e+000;2.8639855573e+000;2.7979836827e+000;2.7411638462e+000;2.7257199365e+000;2.7942006439e+000;2.8154125712e+000;2.7150278073e+000;2.8342249809e+000;2.7701614392e+000;2.7625220570e+000;2.8194955949e+000;2.8200940636e+000;3.1058989998e+000;2.9841466064e+000;3.1582249416e+000;2.9963936596e+000;2.8850913632e+000;3.0645641264e+000;2.8529206791e+000;2.7948309537e+000;2.8261375671e+000;3.2487881796e+000;3.0016430562e+000;2.7853802467e+000;2.8654987809e+000;3.1220216147e+000;2.8139980957e+000;3.2488063294e+000;2.7546321537e+000;2.6979359093e+000;
1.9722656250e+001;2.9012225017e+000;2.7272925158e+000;2.8361616709e+000;2.6961255003e+000;2.6090431115e+000;2.6959466147e+000;2.6976750505e+000;2.7519769461e+000;2.6262928810e+000;2.8072872709e+000;2.7371957826e+000;2.7137249984e+000;2.7105005597e+000;2.7745355780e+000;3.1022840874e+000;2.9605250338e+000;3.0608085408e+000;2.8407642163e+000;2.7190598112e+000;2.8904626557e+000;2.7161950897e+000;2.6683194747e+000;2.7114554204e+000;3.1014163657e+000;2.8206424342e+000;2.6489186896e+000;2.7290651814e+000;2.9957138259e+000;2.6919704522e+000;3.0189588897e+000;2.6354499057e+000;2.5682554982e+000;
1.9822265625e+001;3.0561864209e+000;2.9201586593e+000;3.0189494460e+000;2.8646503696e+000;2.7342295809e+000;2.8947602031e+000;2.8295410108e+000;2.8689779092e+000;2.7017021303e+000;2.9139539973e+000;2.7989299296e+000;2.7649303928e+000;2.5503566080e+000;2.7791830403e+000;3.0930207232e+000;2.9320734280e+000;3.0184096986e+000;2.6517048840e+000;2.6265839447e+000;2.8974132451e+000;2.7473842248e+000;2.6656952734e+000;2.8783393457e+000;3.0693257461e+000;2.9405860398e+000;2.7933917586e+000;2.9154232697e+000;3.0599917860e+000;2.8916633320e+000;3.0454297558e+000;2.8379404845e+000;2.6539908234e+000;
1.9921875000e+001;2.9798135486e+000;2.7525903359e+000;2.9175404598e+000;2.7613451678e+000;2.6513332664e+000;2.7546117713e+000;2.7877807851e+000;2.7893534294e+000;2.6333432749e+000;2.8331005285e+000;2.7329761867e+000;2.7157229465e+000;2.6505392581e+000;2.7560229298e+000;3.1041568646e+000;2.9461982589e+000;3.0164486976e+000;2.7291697531e+000;2.6389609260e+000;2.8159378536e+000;2.6534003317e+000;2.6363237804e+000;2.6665549321e+000;3.0516394230e+000;2.7661945817e+000;2.6672090833e+000;2.7443501376e+000;2.9710607986e+000;2.7265487356e+000;2.9878961205e+000;2.6755849079e+000;2.5805193187e+000;
